# E (eV)   ldos(E)   pdos(E)   
 -6.887  0.134E-06  0.134E-06
 -6.877  0.214E-06  0.214E-06
 -6.867  0.339E-06  0.339E-06
 -6.857  0.529E-06  0.529E-06
 -6.847  0.820E-06  0.820E-06
 -6.837  0.126E-05  0.126E-05
 -6.827  0.191E-05  0.191E-05
 -6.817  0.286E-05  0.286E-05
 -6.807  0.426E-05  0.426E-05
 -6.797  0.628E-05  0.628E-05
 -6.787  0.915E-05  0.915E-05
 -6.777  0.132E-04  0.132E-04
 -6.767  0.189E-04  0.189E-04
 -6.757  0.268E-04  0.268E-04
 -6.747  0.375E-04  0.375E-04
 -6.737  0.521E-04  0.521E-04
 -6.727  0.717E-04  0.717E-04
 -6.717  0.976E-04  0.976E-04
 -6.707  0.132E-03  0.132E-03
 -6.697  0.176E-03  0.176E-03
 -6.687  0.233E-03  0.233E-03
 -6.677  0.306E-03  0.306E-03
 -6.667  0.397E-03  0.397E-03
 -6.657  0.511E-03  0.511E-03
 -6.647  0.652E-03  0.652E-03
 -6.637  0.824E-03  0.824E-03
 -6.627  0.103E-02  0.103E-02
 -6.617  0.128E-02  0.128E-02
 -6.607  0.158E-02  0.158E-02
 -6.597  0.192E-02  0.192E-02
 -6.587  0.232E-02  0.232E-02
 -6.577  0.279E-02  0.279E-02
 -6.567  0.331E-02  0.331E-02
 -6.557  0.391E-02  0.391E-02
 -6.547  0.457E-02  0.457E-02
 -6.537  0.531E-02  0.531E-02
 -6.527  0.612E-02  0.612E-02
 -6.517  0.699E-02  0.699E-02
 -6.507  0.793E-02  0.793E-02
 -6.497  0.894E-02  0.894E-02
 -6.487  0.100E-01  0.100E-01
 -6.477  0.111E-01  0.111E-01
 -6.467  0.123E-01  0.123E-01
 -6.457  0.135E-01  0.135E-01
 -6.447  0.147E-01  0.147E-01
 -6.437  0.159E-01  0.159E-01
 -6.427  0.171E-01  0.171E-01
 -6.417  0.183E-01  0.183E-01
 -6.407  0.195E-01  0.195E-01
 -6.397  0.207E-01  0.207E-01
 -6.387  0.218E-01  0.218E-01
 -6.377  0.229E-01  0.229E-01
 -6.367  0.240E-01  0.240E-01
 -6.357  0.250E-01  0.250E-01
 -6.347  0.260E-01  0.260E-01
 -6.337  0.269E-01  0.269E-01
 -6.327  0.277E-01  0.277E-01
 -6.317  0.286E-01  0.286E-01
 -6.307  0.293E-01  0.293E-01
 -6.297  0.300E-01  0.300E-01
 -6.287  0.307E-01  0.307E-01
 -6.277  0.313E-01  0.313E-01
 -6.267  0.319E-01  0.319E-01
 -6.257  0.325E-01  0.325E-01
 -6.247  0.330E-01  0.330E-01
 -6.237  0.334E-01  0.334E-01
 -6.227  0.338E-01  0.338E-01
 -6.217  0.342E-01  0.342E-01
 -6.207  0.346E-01  0.346E-01
 -6.197  0.348E-01  0.348E-01
 -6.187  0.351E-01  0.351E-01
 -6.177  0.353E-01  0.353E-01
 -6.167  0.355E-01  0.355E-01
 -6.157  0.357E-01  0.357E-01
 -6.147  0.358E-01  0.358E-01
 -6.137  0.360E-01  0.360E-01
 -6.127  0.361E-01  0.361E-01
 -6.117  0.363E-01  0.363E-01
 -6.107  0.364E-01  0.364E-01
 -6.097  0.366E-01  0.366E-01
 -6.087  0.368E-01  0.368E-01
 -6.077  0.370E-01  0.370E-01
 -6.067  0.372E-01  0.372E-01
 -6.057  0.375E-01  0.375E-01
 -6.047  0.377E-01  0.377E-01
 -6.037  0.379E-01  0.379E-01
 -6.027  0.381E-01  0.381E-01
 -6.017  0.383E-01  0.383E-01
 -6.007  0.385E-01  0.385E-01
 -5.997  0.386E-01  0.386E-01
 -5.987  0.386E-01  0.386E-01
 -5.977  0.387E-01  0.387E-01
 -5.967  0.386E-01  0.386E-01
 -5.957  0.386E-01  0.386E-01
 -5.947  0.385E-01  0.385E-01
 -5.937  0.383E-01  0.383E-01
 -5.927  0.382E-01  0.382E-01
 -5.917  0.380E-01  0.380E-01
 -5.907  0.379E-01  0.379E-01
 -5.897  0.378E-01  0.378E-01
 -5.887  0.377E-01  0.377E-01
 -5.877  0.376E-01  0.376E-01
 -5.867  0.376E-01  0.376E-01
 -5.857  0.376E-01  0.376E-01
 -5.847  0.377E-01  0.377E-01
 -5.837  0.379E-01  0.379E-01
 -5.827  0.381E-01  0.381E-01
 -5.817  0.383E-01  0.383E-01
 -5.807  0.386E-01  0.386E-01
 -5.797  0.389E-01  0.389E-01
 -5.787  0.391E-01  0.391E-01
 -5.777  0.394E-01  0.394E-01
 -5.767  0.396E-01  0.396E-01
 -5.757  0.398E-01  0.398E-01
 -5.747  0.399E-01  0.399E-01
 -5.737  0.400E-01  0.400E-01
 -5.727  0.400E-01  0.400E-01
 -5.717  0.399E-01  0.399E-01
 -5.707  0.398E-01  0.398E-01
 -5.697  0.396E-01  0.396E-01
 -5.687  0.394E-01  0.394E-01
 -5.677  0.391E-01  0.391E-01
 -5.667  0.388E-01  0.388E-01
 -5.657  0.384E-01  0.384E-01
 -5.647  0.381E-01  0.381E-01
 -5.637  0.378E-01  0.378E-01
 -5.627  0.375E-01  0.375E-01
 -5.617  0.373E-01  0.373E-01
 -5.607  0.372E-01  0.372E-01
 -5.597  0.371E-01  0.371E-01
 -5.587  0.370E-01  0.370E-01
 -5.577  0.370E-01  0.370E-01
 -5.567  0.371E-01  0.371E-01
 -5.557  0.373E-01  0.373E-01
 -5.547  0.375E-01  0.375E-01
 -5.537  0.377E-01  0.377E-01
 -5.527  0.380E-01  0.380E-01
 -5.517  0.383E-01  0.383E-01
 -5.507  0.386E-01  0.386E-01
 -5.497  0.389E-01  0.389E-01
 -5.487  0.391E-01  0.391E-01
 -5.477  0.394E-01  0.394E-01
 -5.467  0.396E-01  0.396E-01
 -5.457  0.398E-01  0.398E-01
 -5.447  0.400E-01  0.400E-01
 -5.437  0.401E-01  0.401E-01
 -5.427  0.401E-01  0.401E-01
 -5.417  0.401E-01  0.401E-01
 -5.407  0.400E-01  0.400E-01
 -5.397  0.399E-01  0.399E-01
 -5.387  0.396E-01  0.396E-01
 -5.377  0.394E-01  0.394E-01
 -5.367  0.391E-01  0.391E-01
 -5.357  0.387E-01  0.387E-01
 -5.347  0.383E-01  0.383E-01
 -5.337  0.379E-01  0.379E-01
 -5.327  0.375E-01  0.375E-01
 -5.317  0.370E-01  0.370E-01
 -5.307  0.367E-01  0.367E-01
 -5.297  0.363E-01  0.363E-01
 -5.287  0.360E-01  0.360E-01
 -5.277  0.358E-01  0.358E-01
 -5.267  0.357E-01  0.357E-01
 -5.257  0.356E-01  0.356E-01
 -5.247  0.356E-01  0.356E-01
 -5.237  0.358E-01  0.358E-01
 -5.227  0.360E-01  0.360E-01
 -5.217  0.362E-01  0.362E-01
 -5.207  0.366E-01  0.366E-01
 -5.197  0.370E-01  0.370E-01
 -5.187  0.374E-01  0.374E-01
 -5.177  0.378E-01  0.378E-01
 -5.167  0.383E-01  0.383E-01
 -5.157  0.387E-01  0.387E-01
 -5.147  0.391E-01  0.391E-01
 -5.137  0.394E-01  0.394E-01
 -5.127  0.397E-01  0.397E-01
 -5.117  0.399E-01  0.399E-01
 -5.107  0.400E-01  0.400E-01
 -5.097  0.400E-01  0.400E-01
 -5.087  0.400E-01  0.400E-01
 -5.077  0.398E-01  0.398E-01
 -5.067  0.396E-01  0.396E-01
 -5.057  0.394E-01  0.394E-01
 -5.047  0.391E-01  0.391E-01
 -5.037  0.387E-01  0.387E-01
 -5.027  0.383E-01  0.383E-01
 -5.017  0.379E-01  0.379E-01
 -5.007  0.375E-01  0.375E-01
 -4.997  0.371E-01  0.371E-01
 -4.987  0.367E-01  0.367E-01
 -4.977  0.363E-01  0.363E-01
 -4.967  0.359E-01  0.359E-01
 -4.957  0.356E-01  0.356E-01
 -4.947  0.353E-01  0.353E-01
 -4.937  0.351E-01  0.351E-01
 -4.927  0.349E-01  0.349E-01
 -4.917  0.348E-01  0.348E-01
 -4.907  0.347E-01  0.347E-01
 -4.897  0.347E-01  0.347E-01
 -4.887  0.348E-01  0.348E-01
 -4.877  0.350E-01  0.350E-01
 -4.867  0.352E-01  0.352E-01
 -4.857  0.354E-01  0.354E-01
 -4.847  0.358E-01  0.358E-01
 -4.837  0.361E-01  0.361E-01
 -4.827  0.365E-01  0.365E-01
 -4.817  0.369E-01  0.369E-01
 -4.807  0.373E-01  0.373E-01
 -4.797  0.377E-01  0.377E-01
 -4.787  0.381E-01  0.381E-01
 -4.777  0.384E-01  0.384E-01
 -4.767  0.386E-01  0.386E-01
 -4.757  0.388E-01  0.388E-01
 -4.747  0.390E-01  0.390E-01
 -4.737  0.390E-01  0.390E-01
 -4.727  0.390E-01  0.390E-01
 -4.717  0.389E-01  0.389E-01
 -4.707  0.387E-01  0.387E-01
 -4.697  0.385E-01  0.385E-01
 -4.687  0.383E-01  0.383E-01
 -4.677  0.380E-01  0.380E-01
 -4.667  0.376E-01  0.376E-01
 -4.657  0.373E-01  0.373E-01
 -4.647  0.370E-01  0.370E-01
 -4.637  0.366E-01  0.366E-01
 -4.627  0.363E-01  0.363E-01
 -4.617  0.360E-01  0.360E-01
 -4.607  0.357E-01  0.357E-01
 -4.597  0.355E-01  0.355E-01
 -4.587  0.352E-01  0.352E-01
 -4.577  0.350E-01  0.350E-01
 -4.567  0.349E-01  0.349E-01
 -4.557  0.347E-01  0.347E-01
 -4.547  0.346E-01  0.346E-01
 -4.537  0.345E-01  0.345E-01
 -4.527  0.344E-01  0.344E-01
 -4.517  0.343E-01  0.343E-01
 -4.507  0.343E-01  0.343E-01
 -4.497  0.343E-01  0.343E-01
 -4.487  0.343E-01  0.343E-01
 -4.477  0.344E-01  0.344E-01
 -4.467  0.345E-01  0.345E-01
 -4.457  0.346E-01  0.346E-01
 -4.447  0.348E-01  0.348E-01
 -4.437  0.350E-01  0.350E-01
 -4.427  0.353E-01  0.353E-01
 -4.417  0.356E-01  0.356E-01
 -4.407  0.358E-01  0.358E-01
 -4.397  0.362E-01  0.362E-01
 -4.387  0.365E-01  0.365E-01
 -4.377  0.368E-01  0.368E-01
 -4.367  0.371E-01  0.371E-01
 -4.357  0.373E-01  0.373E-01
 -4.347  0.375E-01  0.375E-01
 -4.337  0.377E-01  0.377E-01
 -4.327  0.378E-01  0.378E-01
 -4.317  0.379E-01  0.379E-01
 -4.307  0.379E-01  0.379E-01
 -4.297  0.379E-01  0.379E-01
 -4.287  0.377E-01  0.377E-01
 -4.277  0.375E-01  0.375E-01
 -4.267  0.373E-01  0.373E-01
 -4.257  0.369E-01  0.369E-01
 -4.247  0.366E-01  0.366E-01
 -4.237  0.362E-01  0.362E-01
 -4.227  0.357E-01  0.357E-01
 -4.217  0.353E-01  0.353E-01
 -4.207  0.348E-01  0.348E-01
 -4.197  0.343E-01  0.343E-01
 -4.187  0.339E-01  0.339E-01
 -4.177  0.335E-01  0.335E-01
 -4.167  0.331E-01  0.331E-01
 -4.157  0.328E-01  0.328E-01
 -4.147  0.326E-01  0.326E-01
 -4.137  0.324E-01  0.324E-01
 -4.127  0.323E-01  0.323E-01
 -4.117  0.323E-01  0.323E-01
 -4.107  0.324E-01  0.324E-01
 -4.097  0.325E-01  0.325E-01
 -4.087  0.327E-01  0.327E-01
 -4.077  0.330E-01  0.330E-01
 -4.067  0.333E-01  0.333E-01
 -4.057  0.336E-01  0.336E-01
 -4.047  0.339E-01  0.339E-01
 -4.037  0.343E-01  0.343E-01
 -4.027  0.346E-01  0.346E-01
 -4.017  0.349E-01  0.349E-01
 -4.007  0.352E-01  0.352E-01
 -3.997  0.355E-01  0.355E-01
 -3.987  0.357E-01  0.357E-01
 -3.977  0.359E-01  0.359E-01
 -3.967  0.361E-01  0.361E-01
 -3.957  0.361E-01  0.361E-01
 -3.947  0.362E-01  0.362E-01
 -3.937  0.362E-01  0.362E-01
 -3.927  0.361E-01  0.361E-01
 -3.917  0.360E-01  0.360E-01
 -3.907  0.359E-01  0.359E-01
 -3.897  0.357E-01  0.357E-01
 -3.887  0.354E-01  0.354E-01
 -3.877  0.352E-01  0.352E-01
 -3.867  0.349E-01  0.349E-01
 -3.857  0.345E-01  0.345E-01
 -3.847  0.342E-01  0.342E-01
 -3.837  0.338E-01  0.338E-01
 -3.827  0.335E-01  0.335E-01
 -3.817  0.331E-01  0.331E-01
 -3.807  0.328E-01  0.328E-01
 -3.797  0.325E-01  0.325E-01
 -3.787  0.322E-01  0.322E-01
 -3.777  0.319E-01  0.319E-01
 -3.767  0.317E-01  0.317E-01
 -3.757  0.316E-01  0.316E-01
 -3.747  0.315E-01  0.315E-01
 -3.737  0.314E-01  0.314E-01
 -3.727  0.314E-01  0.314E-01
 -3.717  0.314E-01  0.314E-01
 -3.707  0.315E-01  0.315E-01
 -3.697  0.316E-01  0.316E-01
 -3.687  0.318E-01  0.318E-01
 -3.677  0.319E-01  0.319E-01
 -3.667  0.321E-01  0.321E-01
 -3.657  0.322E-01  0.322E-01
 -3.647  0.324E-01  0.324E-01
 -3.637  0.326E-01  0.326E-01
 -3.627  0.327E-01  0.327E-01
 -3.617  0.328E-01  0.328E-01
 -3.607  0.329E-01  0.329E-01
 -3.597  0.329E-01  0.329E-01
 -3.587  0.329E-01  0.329E-01
 -3.577  0.329E-01  0.329E-01
 -3.567  0.329E-01  0.329E-01
 -3.557  0.328E-01  0.328E-01
 -3.547  0.327E-01  0.327E-01
 -3.537  0.326E-01  0.326E-01
 -3.527  0.325E-01  0.325E-01
 -3.517  0.324E-01  0.324E-01
 -3.507  0.322E-01  0.322E-01
 -3.497  0.321E-01  0.321E-01
 -3.487  0.319E-01  0.319E-01
 -3.477  0.317E-01  0.317E-01
 -3.467  0.315E-01  0.315E-01
 -3.457  0.313E-01  0.313E-01
 -3.447  0.311E-01  0.311E-01
 -3.437  0.308E-01  0.308E-01
 -3.427  0.306E-01  0.306E-01
 -3.417  0.304E-01  0.304E-01
 -3.407  0.301E-01  0.301E-01
 -3.397  0.299E-01  0.299E-01
 -3.387  0.297E-01  0.297E-01
 -3.377  0.294E-01  0.294E-01
 -3.367  0.292E-01  0.292E-01
 -3.357  0.290E-01  0.290E-01
 -3.347  0.288E-01  0.288E-01
 -3.337  0.286E-01  0.286E-01
 -3.327  0.285E-01  0.285E-01
 -3.317  0.283E-01  0.283E-01
 -3.307  0.282E-01  0.282E-01
 -3.297  0.281E-01  0.281E-01
 -3.287  0.280E-01  0.280E-01
 -3.277  0.279E-01  0.279E-01
 -3.267  0.279E-01  0.279E-01
 -3.257  0.278E-01  0.278E-01
 -3.247  0.278E-01  0.278E-01
 -3.237  0.277E-01  0.277E-01
 -3.227  0.277E-01  0.277E-01
 -3.217  0.277E-01  0.277E-01
 -3.207  0.277E-01  0.277E-01
 -3.197  0.276E-01  0.276E-01
 -3.187  0.275E-01  0.275E-01
 -3.177  0.275E-01  0.275E-01
 -3.167  0.274E-01  0.274E-01
 -3.157  0.273E-01  0.273E-01
 -3.147  0.271E-01  0.271E-01
 -3.137  0.269E-01  0.269E-01
 -3.127  0.267E-01  0.267E-01
 -3.117  0.265E-01  0.265E-01
 -3.107  0.263E-01  0.263E-01
 -3.097  0.260E-01  0.260E-01
 -3.087  0.257E-01  0.257E-01
 -3.077  0.254E-01  0.254E-01
 -3.067  0.251E-01  0.251E-01
 -3.057  0.248E-01  0.248E-01
 -3.047  0.246E-01  0.246E-01
 -3.037  0.243E-01  0.243E-01
 -3.027  0.240E-01  0.240E-01
 -3.017  0.238E-01  0.238E-01
 -3.007  0.236E-01  0.236E-01
 -2.997  0.234E-01  0.234E-01
 -2.987  0.233E-01  0.233E-01
 -2.977  0.231E-01  0.231E-01
 -2.967  0.230E-01  0.230E-01
 -2.957  0.230E-01  0.230E-01
 -2.947  0.229E-01  0.229E-01
 -2.937  0.229E-01  0.229E-01
 -2.927  0.228E-01  0.228E-01
 -2.917  0.228E-01  0.228E-01
 -2.907  0.228E-01  0.228E-01
 -2.897  0.228E-01  0.228E-01
 -2.887  0.228E-01  0.228E-01
 -2.877  0.228E-01  0.228E-01
 -2.867  0.227E-01  0.227E-01
 -2.857  0.227E-01  0.227E-01
 -2.847  0.226E-01  0.226E-01
 -2.837  0.225E-01  0.225E-01
 -2.827  0.224E-01  0.224E-01
 -2.817  0.223E-01  0.223E-01
 -2.807  0.221E-01  0.221E-01
 -2.797  0.220E-01  0.220E-01
 -2.787  0.219E-01  0.219E-01
 -2.777  0.217E-01  0.217E-01
 -2.767  0.216E-01  0.216E-01
 -2.757  0.215E-01  0.215E-01
 -2.747  0.214E-01  0.214E-01
 -2.737  0.213E-01  0.213E-01
 -2.727  0.213E-01  0.213E-01
 -2.717  0.212E-01  0.212E-01
 -2.707  0.212E-01  0.212E-01
 -2.697  0.212E-01  0.212E-01
 -2.687  0.212E-01  0.212E-01
 -2.677  0.213E-01  0.213E-01
 -2.667  0.213E-01  0.213E-01
 -2.657  0.214E-01  0.214E-01
 -2.647  0.215E-01  0.215E-01
 -2.637  0.216E-01  0.216E-01
 -2.627  0.217E-01  0.217E-01
 -2.617  0.218E-01  0.218E-01
 -2.607  0.220E-01  0.220E-01
 -2.597  0.221E-01  0.221E-01
 -2.587  0.223E-01  0.223E-01
 -2.577  0.225E-01  0.225E-01
 -2.567  0.227E-01  0.227E-01
 -2.557  0.229E-01  0.229E-01
 -2.547  0.232E-01  0.232E-01
 -2.537  0.235E-01  0.235E-01
 -2.527  0.238E-01  0.238E-01
 -2.517  0.241E-01  0.241E-01
 -2.507  0.245E-01  0.245E-01
 -2.497  0.249E-01  0.249E-01
 -2.487  0.253E-01  0.253E-01
 -2.477  0.257E-01  0.257E-01
 -2.467  0.262E-01  0.262E-01
 -2.457  0.266E-01  0.266E-01
 -2.447  0.270E-01  0.270E-01
 -2.437  0.274E-01  0.274E-01
 -2.427  0.277E-01  0.277E-01
 -2.417  0.280E-01  0.280E-01
 -2.407  0.282E-01  0.282E-01
 -2.397  0.283E-01  0.283E-01
 -2.387  0.283E-01  0.283E-01
 -2.377  0.283E-01  0.283E-01
 -2.367  0.280E-01  0.280E-01
 -2.357  0.277E-01  0.277E-01
 -2.347  0.272E-01  0.272E-01
 -2.337  0.266E-01  0.266E-01
 -2.327  0.259E-01  0.259E-01
 -2.317  0.250E-01  0.250E-01
 -2.307  0.240E-01  0.240E-01
 -2.297  0.229E-01  0.229E-01
 -2.287  0.217E-01  0.217E-01
 -2.277  0.204E-01  0.204E-01
 -2.267  0.190E-01  0.190E-01
 -2.257  0.177E-01  0.177E-01
 -2.247  0.162E-01  0.162E-01
 -2.237  0.148E-01  0.148E-01
 -2.227  0.134E-01  0.134E-01
 -2.217  0.121E-01  0.121E-01
 -2.207  0.108E-01  0.108E-01
 -2.197  0.952E-02  0.952E-02
 -2.187  0.835E-02  0.835E-02
 -2.177  0.726E-02  0.726E-02
 -2.167  0.626E-02  0.626E-02
 -2.157  0.535E-02  0.535E-02
 -2.147  0.454E-02  0.454E-02
 -2.137  0.382E-02  0.382E-02
 -2.127  0.318E-02  0.318E-02
 -2.117  0.263E-02  0.263E-02
 -2.107  0.215E-02  0.215E-02
 -2.097  0.175E-02  0.175E-02
 -2.087  0.141E-02  0.141E-02
 -2.077  0.112E-02  0.112E-02
 -2.067  0.886E-03  0.886E-03
 -2.057  0.695E-03  0.695E-03
 -2.047  0.539E-03  0.539E-03
 -2.037  0.415E-03  0.415E-03
 -2.027  0.317E-03  0.317E-03
 -2.017  0.240E-03  0.240E-03
 -2.007  0.179E-03  0.179E-03
 -1.997  0.133E-03  0.133E-03
 -1.987  0.981E-04  0.981E-04
 -1.977  0.715E-04  0.715E-04
 -1.967  0.517E-04  0.517E-04
 -1.957  0.370E-04  0.370E-04
 -1.947  0.263E-04  0.263E-04
 -1.937  0.185E-04  0.185E-04
 -1.927  0.129E-04  0.129E-04
 -1.917  0.888E-05  0.888E-05
 -1.907  0.608E-05  0.608E-05
 -1.897  0.412E-05  0.412E-05
 -1.887  0.276E-05  0.276E-05
 -1.877  0.184E-05  0.184E-05
 -1.867  0.121E-05  0.121E-05
 -1.857  0.791E-06  0.791E-06
 -1.847  0.512E-06  0.512E-06
 -1.837  0.328E-06  0.328E-06
 -1.827  0.208E-06  0.208E-06
 -1.817  0.131E-06  0.131E-06
 -1.807  0.814E-07  0.814E-07
 -1.797  0.502E-07  0.502E-07
 -1.787  0.307E-07  0.307E-07
 -1.777  0.186E-07  0.186E-07
 -1.767  0.111E-07  0.111E-07
 -1.757  0.661E-08  0.661E-08
 -1.747  0.388E-08  0.388E-08
 -1.737  0.226E-08  0.226E-08
 -1.727  0.130E-08  0.130E-08
 -1.717  0.745E-09  0.745E-09
 -1.707  0.421E-09  0.421E-09
 -1.697  0.236E-09  0.236E-09
 -1.687  0.131E-09  0.131E-09
 -1.677  0.718E-10  0.718E-10
 -1.667  0.390E-10  0.390E-10
 -1.657  0.210E-10  0.210E-10
 -1.647  0.112E-10  0.112E-10
 -1.637  0.590E-11  0.590E-11
 -1.627  0.308E-11  0.308E-11
 -1.617  0.158E-11  0.158E-11
 -1.607  0.810E-12  0.810E-12
 -1.597  0.402E-12  0.402E-12
 -1.587  0.202E-12  0.202E-12
 -1.577  0.101E-12  0.101E-12
 -1.567  0.445E-13  0.445E-13
 -1.557  0.208E-13  0.208E-13
 -1.547  0.914E-14  0.914E-14
 -1.537  0.322E-14  0.322E-14
 -1.527  0.155E-14  0.155E-14
 -1.517  0.306E-15  0.306E-15
 -1.507  0.147E-15  0.147E-15
 -1.497  0.000E+00  0.000E+00
 -1.487  0.000E+00  0.000E+00
 -1.477  0.000E+00  0.000E+00
 -1.467  0.000E+00  0.000E+00
 -1.457  0.000E+00  0.000E+00
 -1.447  0.000E+00  0.000E+00
 -1.437  0.000E+00  0.000E+00
 -1.427  0.000E+00  0.000E+00
 -1.417  0.000E+00  0.000E+00
 -1.407  0.000E+00  0.000E+00
 -1.397  0.000E+00  0.000E+00
 -1.387  0.000E+00  0.000E+00
 -1.377  0.000E+00  0.000E+00
 -1.367  0.000E+00  0.000E+00
 -1.357  0.000E+00  0.000E+00
 -1.347  0.000E+00  0.000E+00
 -1.337  0.000E+00  0.000E+00
 -1.327  0.000E+00  0.000E+00
 -1.317  0.000E+00  0.000E+00
 -1.307  0.000E+00  0.000E+00
 -1.297  0.000E+00  0.000E+00
 -1.287  0.000E+00  0.000E+00
 -1.277  0.000E+00  0.000E+00
 -1.267  0.000E+00  0.000E+00
 -1.257  0.000E+00  0.000E+00
 -1.247  0.000E+00  0.000E+00
 -1.237  0.000E+00  0.000E+00
 -1.227  0.000E+00  0.000E+00
 -1.217  0.000E+00  0.000E+00
 -1.207  0.000E+00  0.000E+00
 -1.197  0.000E+00  0.000E+00
 -1.187  0.000E+00  0.000E+00
 -1.177  0.000E+00  0.000E+00
 -1.167  0.000E+00  0.000E+00
 -1.157  0.000E+00  0.000E+00
 -1.147  0.000E+00  0.000E+00
 -1.137  0.000E+00  0.000E+00
 -1.127  0.000E+00  0.000E+00
 -1.117  0.000E+00  0.000E+00
 -1.107  0.000E+00  0.000E+00
 -1.097  0.000E+00  0.000E+00
 -1.087  0.000E+00  0.000E+00
 -1.077  0.000E+00  0.000E+00
 -1.067  0.000E+00  0.000E+00
 -1.057  0.000E+00  0.000E+00
 -1.047  0.000E+00  0.000E+00
 -1.037  0.000E+00  0.000E+00
 -1.027  0.000E+00  0.000E+00
 -1.017  0.000E+00  0.000E+00
 -1.007  0.000E+00  0.000E+00
 -0.997  0.000E+00  0.000E+00
 -0.987  0.000E+00  0.000E+00
 -0.977  0.000E+00  0.000E+00
 -0.967  0.000E+00  0.000E+00
 -0.957  0.000E+00  0.000E+00
 -0.947  0.000E+00  0.000E+00
 -0.937  0.000E+00  0.000E+00
 -0.927  0.000E+00  0.000E+00
 -0.917  0.000E+00  0.000E+00
 -0.907  0.000E+00  0.000E+00
 -0.897  0.000E+00  0.000E+00
 -0.887  0.000E+00  0.000E+00
 -0.877  0.000E+00  0.000E+00
 -0.867  0.000E+00  0.000E+00
 -0.857  0.000E+00  0.000E+00
 -0.847  0.000E+00  0.000E+00
 -0.837  0.000E+00  0.000E+00
 -0.827  0.000E+00  0.000E+00
 -0.817  0.000E+00  0.000E+00
 -0.807  0.000E+00  0.000E+00
 -0.797  0.000E+00  0.000E+00
 -0.787  0.000E+00  0.000E+00
 -0.777  0.000E+00  0.000E+00
 -0.767  0.000E+00  0.000E+00
 -0.757  0.000E+00  0.000E+00
 -0.747  0.000E+00  0.000E+00
 -0.737  0.000E+00  0.000E+00
 -0.727  0.000E+00  0.000E+00
 -0.717  0.000E+00  0.000E+00
 -0.707  0.000E+00  0.000E+00
 -0.697  0.000E+00  0.000E+00
 -0.687  0.000E+00  0.000E+00
 -0.677  0.000E+00  0.000E+00
 -0.667  0.000E+00  0.000E+00
 -0.657  0.000E+00  0.000E+00
 -0.647  0.000E+00  0.000E+00
 -0.637  0.000E+00  0.000E+00
 -0.627  0.000E+00  0.000E+00
 -0.617  0.000E+00  0.000E+00
 -0.607  0.000E+00  0.000E+00
 -0.597  0.000E+00  0.000E+00
 -0.587  0.000E+00  0.000E+00
 -0.577  0.000E+00  0.000E+00
 -0.567  0.000E+00  0.000E+00
 -0.557  0.000E+00  0.000E+00
 -0.547  0.000E+00  0.000E+00
 -0.537  0.000E+00  0.000E+00
 -0.527  0.000E+00  0.000E+00
 -0.517  0.000E+00  0.000E+00
 -0.507  0.000E+00  0.000E+00
 -0.497  0.000E+00  0.000E+00
 -0.487  0.000E+00  0.000E+00
 -0.477  0.000E+00  0.000E+00
 -0.467  0.000E+00  0.000E+00
 -0.457  0.000E+00  0.000E+00
 -0.447  0.000E+00  0.000E+00
 -0.437  0.000E+00  0.000E+00
 -0.427  0.000E+00  0.000E+00
 -0.417  0.000E+00  0.000E+00
 -0.407  0.000E+00  0.000E+00
 -0.397  0.000E+00  0.000E+00
 -0.387  0.000E+00  0.000E+00
 -0.377  0.000E+00  0.000E+00
 -0.367  0.000E+00  0.000E+00
 -0.357  0.000E+00  0.000E+00
 -0.347  0.000E+00  0.000E+00
 -0.337  0.000E+00  0.000E+00
 -0.327  0.000E+00  0.000E+00
 -0.317  0.000E+00  0.000E+00
 -0.307  0.000E+00  0.000E+00
 -0.297  0.000E+00  0.000E+00
 -0.287  0.000E+00  0.000E+00
 -0.277  0.000E+00  0.000E+00
 -0.267  0.000E+00  0.000E+00
 -0.257  0.000E+00  0.000E+00
 -0.247  0.000E+00  0.000E+00
 -0.237  0.000E+00  0.000E+00
 -0.227  0.000E+00  0.000E+00
 -0.217  0.000E+00  0.000E+00
 -0.207  0.000E+00  0.000E+00
 -0.197  0.000E+00  0.000E+00
 -0.187  0.000E+00  0.000E+00
 -0.177  0.000E+00  0.000E+00
 -0.167  0.000E+00  0.000E+00
 -0.157  0.000E+00  0.000E+00
 -0.147  0.000E+00  0.000E+00
 -0.137  0.000E+00  0.000E+00
 -0.127  0.000E+00  0.000E+00
 -0.117  0.000E+00  0.000E+00
 -0.107  0.000E+00  0.000E+00
 -0.097  0.000E+00  0.000E+00
 -0.087  0.000E+00  0.000E+00
 -0.077  0.000E+00  0.000E+00
 -0.067  0.000E+00  0.000E+00
 -0.057  0.000E+00  0.000E+00
 -0.047  0.000E+00  0.000E+00
 -0.037  0.000E+00  0.000E+00
 -0.027  0.000E+00  0.000E+00
 -0.017  0.000E+00  0.000E+00
 -0.007  0.000E+00  0.000E+00
  0.003  0.000E+00  0.000E+00
  0.013  0.000E+00  0.000E+00
  0.023  0.000E+00  0.000E+00
  0.033  0.000E+00  0.000E+00
  0.043  0.000E+00  0.000E+00
  0.053  0.000E+00  0.000E+00
  0.063  0.000E+00  0.000E+00
  0.073  0.000E+00  0.000E+00
  0.083  0.000E+00  0.000E+00
  0.093  0.000E+00  0.000E+00
  0.103  0.000E+00  0.000E+00
  0.113  0.000E+00  0.000E+00
  0.123  0.000E+00  0.000E+00
  0.133  0.000E+00  0.000E+00
  0.143  0.000E+00  0.000E+00
  0.153  0.000E+00  0.000E+00
  0.163  0.000E+00  0.000E+00
  0.173  0.000E+00  0.000E+00
  0.183  0.000E+00  0.000E+00
  0.193  0.000E+00  0.000E+00
  0.203  0.000E+00  0.000E+00
  0.213  0.000E+00  0.000E+00
  0.223  0.000E+00  0.000E+00
  0.233  0.000E+00  0.000E+00
  0.243  0.000E+00  0.000E+00
  0.253  0.000E+00  0.000E+00
  0.263  0.000E+00  0.000E+00
  0.273  0.000E+00  0.000E+00
  0.283  0.000E+00  0.000E+00
  0.293  0.000E+00  0.000E+00
  0.303  0.000E+00  0.000E+00
  0.313  0.000E+00  0.000E+00
  0.323  0.000E+00  0.000E+00
  0.333  0.000E+00  0.000E+00
  0.343  0.000E+00  0.000E+00
  0.353  0.000E+00  0.000E+00
  0.363  0.000E+00  0.000E+00
  0.373  0.000E+00  0.000E+00
  0.383  0.000E+00  0.000E+00
  0.393  0.000E+00  0.000E+00
  0.403  0.000E+00  0.000E+00
  0.413  0.000E+00  0.000E+00
  0.423  0.000E+00  0.000E+00
  0.433  0.000E+00  0.000E+00
  0.443  0.000E+00  0.000E+00
  0.453  0.000E+00  0.000E+00
  0.463  0.000E+00  0.000E+00
  0.473  0.000E+00  0.000E+00
  0.483  0.000E+00  0.000E+00
  0.493  0.000E+00  0.000E+00
  0.503  0.000E+00  0.000E+00
  0.513  0.000E+00  0.000E+00
  0.523  0.000E+00  0.000E+00
  0.533  0.000E+00  0.000E+00
  0.543  0.000E+00  0.000E+00
  0.553  0.000E+00  0.000E+00
  0.563  0.000E+00  0.000E+00
  0.573  0.000E+00  0.000E+00
  0.583  0.000E+00  0.000E+00
  0.593  0.000E+00  0.000E+00
  0.603  0.000E+00  0.000E+00
  0.613  0.000E+00  0.000E+00
  0.623  0.000E+00  0.000E+00
  0.633  0.000E+00  0.000E+00
  0.643  0.000E+00  0.000E+00
  0.653  0.000E+00  0.000E+00
  0.663  0.000E+00  0.000E+00
  0.673  0.000E+00  0.000E+00
  0.683  0.000E+00  0.000E+00
  0.693  0.000E+00  0.000E+00
  0.703  0.000E+00  0.000E+00
  0.713  0.000E+00  0.000E+00
  0.723  0.000E+00  0.000E+00
  0.733  0.000E+00  0.000E+00
  0.743  0.000E+00  0.000E+00
  0.753  0.000E+00  0.000E+00
  0.763  0.000E+00  0.000E+00
  0.773  0.000E+00  0.000E+00
  0.783  0.000E+00  0.000E+00
  0.793  0.000E+00  0.000E+00
  0.803  0.000E+00  0.000E+00
  0.813  0.000E+00  0.000E+00
  0.823  0.000E+00  0.000E+00
  0.833  0.000E+00  0.000E+00
  0.843  0.000E+00  0.000E+00
  0.853  0.000E+00  0.000E+00
  0.863  0.000E+00  0.000E+00
  0.873  0.000E+00  0.000E+00
  0.883  0.000E+00  0.000E+00
  0.893  0.000E+00  0.000E+00
  0.903  0.000E+00  0.000E+00
  0.913  0.000E+00  0.000E+00
  0.923  0.000E+00  0.000E+00
  0.933  0.000E+00  0.000E+00
  0.943  0.000E+00  0.000E+00
  0.953  0.000E+00  0.000E+00
  0.963  0.000E+00  0.000E+00
  0.973  0.000E+00  0.000E+00
  0.983  0.000E+00  0.000E+00
  0.993  0.000E+00  0.000E+00
  1.003  0.000E+00  0.000E+00
  1.013  0.000E+00  0.000E+00
  1.023  0.000E+00  0.000E+00
  1.033  0.000E+00  0.000E+00
  1.043  0.000E+00  0.000E+00
  1.053  0.000E+00  0.000E+00
  1.063  0.000E+00  0.000E+00
  1.073  0.000E+00  0.000E+00
  1.083  0.000E+00  0.000E+00
  1.093  0.000E+00  0.000E+00
  1.103  0.000E+00  0.000E+00
  1.113  0.000E+00  0.000E+00
  1.123  0.000E+00  0.000E+00
  1.133  0.000E+00  0.000E+00
  1.143  0.000E+00  0.000E+00
  1.153  0.000E+00  0.000E+00
  1.163  0.000E+00  0.000E+00
  1.173  0.000E+00  0.000E+00
  1.183  0.000E+00  0.000E+00
  1.193  0.000E+00  0.000E+00
  1.203  0.000E+00  0.000E+00
  1.213  0.000E+00  0.000E+00
  1.223  0.000E+00  0.000E+00
  1.233  0.000E+00  0.000E+00
  1.243  0.000E+00  0.000E+00
  1.253  0.000E+00  0.000E+00
  1.263  0.000E+00  0.000E+00
  1.273  0.000E+00  0.000E+00
  1.283  0.000E+00  0.000E+00
  1.293  0.000E+00  0.000E+00
  1.303  0.000E+00  0.000E+00
  1.313  0.000E+00  0.000E+00
  1.323  0.000E+00  0.000E+00
  1.333  0.000E+00  0.000E+00
  1.343  0.000E+00  0.000E+00
  1.353  0.000E+00  0.000E+00
  1.363  0.000E+00  0.000E+00
  1.373  0.000E+00  0.000E+00
  1.383  0.000E+00  0.000E+00
  1.393  0.000E+00  0.000E+00
  1.403  0.000E+00  0.000E+00
  1.413  0.000E+00  0.000E+00
  1.423  0.000E+00  0.000E+00
  1.433  0.000E+00  0.000E+00
  1.443  0.000E+00  0.000E+00
  1.453  0.000E+00  0.000E+00
  1.463  0.000E+00  0.000E+00
  1.473  0.000E+00  0.000E+00
  1.483  0.000E+00  0.000E+00
  1.493  0.000E+00  0.000E+00
  1.503  0.000E+00  0.000E+00
  1.513  0.000E+00  0.000E+00
  1.523  0.000E+00  0.000E+00
  1.533  0.000E+00  0.000E+00
  1.543  0.000E+00  0.000E+00
  1.553  0.000E+00  0.000E+00
  1.563  0.000E+00  0.000E+00
  1.573  0.000E+00  0.000E+00
  1.583  0.000E+00  0.000E+00
  1.593  0.000E+00  0.000E+00
  1.603  0.000E+00  0.000E+00
  1.613  0.000E+00  0.000E+00
  1.623  0.000E+00  0.000E+00
  1.633  0.000E+00  0.000E+00
  1.643  0.000E+00  0.000E+00
  1.653  0.000E+00  0.000E+00
  1.663  0.000E+00  0.000E+00
  1.673  0.000E+00  0.000E+00
  1.683  0.000E+00  0.000E+00
  1.693  0.000E+00  0.000E+00
  1.703  0.000E+00  0.000E+00
  1.713  0.000E+00  0.000E+00
  1.723  0.000E+00  0.000E+00
  1.733  0.000E+00  0.000E+00
  1.743  0.000E+00  0.000E+00
  1.753  0.000E+00  0.000E+00
  1.763  0.000E+00  0.000E+00
  1.773  0.000E+00  0.000E+00
  1.783  0.000E+00  0.000E+00
  1.793  0.000E+00  0.000E+00
  1.803  0.000E+00  0.000E+00
  1.813  0.000E+00  0.000E+00
  1.823  0.000E+00  0.000E+00
  1.833  0.000E+00  0.000E+00
  1.843  0.000E+00  0.000E+00
  1.853  0.000E+00  0.000E+00
  1.863  0.000E+00  0.000E+00
  1.873  0.000E+00  0.000E+00
  1.883  0.000E+00  0.000E+00
  1.893  0.000E+00  0.000E+00
  1.903  0.000E+00  0.000E+00
  1.913  0.000E+00  0.000E+00
  1.923  0.000E+00  0.000E+00
  1.933  0.000E+00  0.000E+00
  1.943  0.000E+00  0.000E+00
  1.953  0.000E+00  0.000E+00
  1.963  0.000E+00  0.000E+00
  1.973  0.000E+00  0.000E+00
  1.983  0.000E+00  0.000E+00
  1.993  0.000E+00  0.000E+00
  2.003  0.000E+00  0.000E+00
  2.013  0.000E+00  0.000E+00
  2.023  0.000E+00  0.000E+00
  2.033  0.860E-14  0.860E-14
  2.043  0.180E-13  0.180E-13
  2.053  0.371E-13  0.371E-13
  2.063  0.758E-13  0.758E-13
  2.073  0.153E-12  0.153E-12
  2.083  0.306E-12  0.306E-12
  2.093  0.654E-12  0.654E-12
  2.103  0.129E-11  0.129E-11
  2.113  0.250E-11  0.250E-11
  2.123  0.482E-11  0.482E-11
  2.133  0.919E-11  0.919E-11
  2.143  0.173E-10  0.173E-10
  2.153  0.325E-10  0.325E-10
  2.163  0.600E-10  0.600E-10
  2.173  0.110E-09  0.110E-09
  2.183  0.199E-09  0.199E-09
  2.193  0.356E-09  0.356E-09
  2.203  0.631E-09  0.631E-09
  2.213  0.111E-08  0.111E-08
  2.223  0.193E-08  0.193E-08
  2.233  0.331E-08  0.331E-08
  2.243  0.564E-08  0.564E-08
  2.253  0.951E-08  0.951E-08
  2.263  0.159E-07  0.159E-07
  2.273  0.262E-07  0.262E-07
  2.283  0.429E-07  0.429E-07
  2.293  0.695E-07  0.695E-07
  2.303  0.112E-06  0.112E-06
  2.313  0.177E-06  0.177E-06
  2.323  0.279E-06  0.279E-06
  2.333  0.434E-06  0.434E-06
  2.343  0.670E-06  0.670E-06
  2.353  0.102E-05  0.102E-05
  2.363  0.155E-05  0.155E-05
  2.373  0.232E-05  0.232E-05
  2.383  0.345E-05  0.345E-05
  2.393  0.507E-05  0.507E-05
  2.403  0.739E-05  0.739E-05
  2.413  0.107E-04  0.107E-04
  2.423  0.153E-04  0.153E-04
  2.433  0.217E-04  0.217E-04
  2.443  0.304E-04  0.304E-04
  2.453  0.424E-04  0.424E-04
  2.463  0.585E-04  0.585E-04
  2.473  0.800E-04  0.800E-04
  2.483  0.108E-03  0.108E-03
  2.493  0.146E-03  0.146E-03
  2.503  0.194E-03  0.194E-03
  2.513  0.256E-03  0.256E-03
  2.523  0.335E-03  0.335E-03
  2.533  0.435E-03  0.435E-03
  2.543  0.560E-03  0.560E-03
  2.553  0.714E-03  0.714E-03
  2.563  0.903E-03  0.903E-03
  2.573  0.113E-02  0.113E-02
  2.583  0.141E-02  0.141E-02
  2.593  0.174E-02  0.174E-02
  2.603  0.213E-02  0.213E-02
  2.613  0.258E-02  0.258E-02
  2.623  0.311E-02  0.311E-02
  2.633  0.372E-02  0.372E-02
  2.643  0.440E-02  0.440E-02
  2.653  0.517E-02  0.517E-02
  2.663  0.603E-02  0.603E-02
  2.673  0.698E-02  0.698E-02
  2.683  0.802E-02  0.802E-02
  2.693  0.914E-02  0.914E-02
  2.703  0.103E-01  0.103E-01
  2.713  0.116E-01  0.116E-01
  2.723  0.130E-01  0.130E-01
  2.733  0.143E-01  0.143E-01
  2.743  0.158E-01  0.158E-01
  2.753  0.172E-01  0.172E-01
  2.763  0.187E-01  0.187E-01
  2.773  0.202E-01  0.202E-01
  2.783  0.217E-01  0.217E-01
  2.793  0.232E-01  0.232E-01
  2.803  0.246E-01  0.246E-01
  2.813  0.261E-01  0.261E-01
  2.823  0.275E-01  0.275E-01
  2.833  0.289E-01  0.289E-01
  2.843  0.302E-01  0.302E-01
  2.853  0.316E-01  0.316E-01
  2.863  0.329E-01  0.329E-01
  2.873  0.342E-01  0.342E-01
  2.883  0.356E-01  0.356E-01
  2.893  0.369E-01  0.369E-01
  2.903  0.383E-01  0.383E-01
  2.913  0.396E-01  0.396E-01
  2.923  0.410E-01  0.410E-01
  2.933  0.424E-01  0.424E-01
  2.943  0.438E-01  0.438E-01
  2.953  0.451E-01  0.451E-01
  2.963  0.464E-01  0.464E-01
  2.973  0.477E-01  0.477E-01
  2.983  0.488E-01  0.488E-01
  2.993  0.499E-01  0.499E-01
  3.003  0.509E-01  0.509E-01
  3.013  0.517E-01  0.517E-01
  3.023  0.524E-01  0.524E-01
  3.033  0.529E-01  0.529E-01
  3.043  0.534E-01  0.534E-01
  3.053  0.536E-01  0.536E-01
  3.063  0.538E-01  0.538E-01
  3.073  0.540E-01  0.540E-01
  3.083  0.540E-01  0.540E-01
  3.093  0.541E-01  0.541E-01
  3.103  0.542E-01  0.542E-01
  3.113  0.544E-01  0.544E-01
  3.123  0.546E-01  0.546E-01
  3.133  0.550E-01  0.550E-01
  3.143  0.556E-01  0.556E-01
  3.153  0.563E-01  0.563E-01
  3.163  0.571E-01  0.571E-01
  3.173  0.581E-01  0.581E-01
  3.183  0.592E-01  0.592E-01
  3.193  0.605E-01  0.605E-01
  3.203  0.618E-01  0.618E-01
  3.213  0.631E-01  0.631E-01
  3.223  0.645E-01  0.645E-01
  3.233  0.658E-01  0.658E-01
  3.243  0.671E-01  0.671E-01
  3.253  0.682E-01  0.682E-01
  3.263  0.692E-01  0.692E-01
  3.273  0.701E-01  0.701E-01
  3.283  0.707E-01  0.707E-01
  3.293  0.712E-01  0.712E-01
  3.303  0.716E-01  0.716E-01
  3.313  0.718E-01  0.718E-01
  3.323  0.719E-01  0.719E-01
  3.333  0.719E-01  0.719E-01
  3.343  0.718E-01  0.718E-01
  3.353  0.718E-01  0.718E-01
  3.363  0.717E-01  0.717E-01
  3.373  0.716E-01  0.716E-01
  3.383  0.716E-01  0.716E-01
  3.393  0.717E-01  0.717E-01
  3.403  0.719E-01  0.719E-01
  3.413  0.721E-01  0.721E-01
  3.423  0.724E-01  0.724E-01
  3.433  0.728E-01  0.728E-01
  3.443  0.733E-01  0.733E-01
  3.453  0.737E-01  0.737E-01
  3.463  0.742E-01  0.742E-01
  3.473  0.747E-01  0.747E-01
  3.483  0.751E-01  0.751E-01
  3.493  0.755E-01  0.755E-01
  3.503  0.758E-01  0.758E-01
  3.513  0.761E-01  0.761E-01
  3.523  0.763E-01  0.763E-01
  3.533  0.765E-01  0.765E-01
  3.543  0.766E-01  0.766E-01
  3.553  0.768E-01  0.768E-01
  3.563  0.770E-01  0.770E-01
  3.573  0.773E-01  0.773E-01
  3.583  0.776E-01  0.776E-01
  3.593  0.780E-01  0.780E-01
  3.603  0.786E-01  0.786E-01
  3.613  0.792E-01  0.792E-01
  3.623  0.800E-01  0.800E-01
  3.633  0.809E-01  0.809E-01
  3.643  0.819E-01  0.819E-01
  3.653  0.830E-01  0.830E-01
  3.663  0.841E-01  0.841E-01
  3.673  0.852E-01  0.852E-01
  3.683  0.863E-01  0.863E-01
  3.693  0.874E-01  0.874E-01
  3.703  0.885E-01  0.885E-01
  3.713  0.894E-01  0.894E-01
  3.723  0.903E-01  0.903E-01
  3.733  0.910E-01  0.910E-01
  3.743  0.916E-01  0.916E-01
  3.753  0.920E-01  0.920E-01
  3.763  0.923E-01  0.923E-01
  3.773  0.925E-01  0.925E-01
  3.783  0.925E-01  0.925E-01
  3.793  0.924E-01  0.924E-01
  3.803  0.921E-01  0.921E-01
  3.813  0.917E-01  0.917E-01
  3.823  0.913E-01  0.913E-01
  3.833  0.907E-01  0.907E-01
  3.843  0.901E-01  0.901E-01
  3.853  0.895E-01  0.895E-01
  3.863  0.889E-01  0.889E-01
  3.873  0.883E-01  0.883E-01
  3.883  0.877E-01  0.877E-01
  3.893  0.873E-01  0.873E-01
  3.903  0.869E-01  0.869E-01
  3.913  0.868E-01  0.868E-01
  3.923  0.867E-01  0.867E-01
  3.933  0.869E-01  0.869E-01
  3.943  0.873E-01  0.873E-01
  3.953  0.879E-01  0.879E-01
  3.963  0.887E-01  0.887E-01
  3.973  0.897E-01  0.897E-01
  3.983  0.908E-01  0.908E-01
  3.993  0.921E-01  0.921E-01
  4.003  0.936E-01  0.936E-01
  4.013  0.951E-01  0.951E-01
  4.023  0.966E-01  0.966E-01
  4.033  0.982E-01  0.982E-01
  4.043  0.997E-01  0.997E-01
  4.053  0.101E+00  0.101E+00
  4.063  0.103E+00  0.103E+00
  4.073  0.104E+00  0.104E+00
  4.083  0.105E+00  0.105E+00
  4.093  0.106E+00  0.106E+00
  4.103  0.107E+00  0.107E+00
  4.113  0.108E+00  0.108E+00
  4.123  0.108E+00  0.108E+00
  4.133  0.109E+00  0.109E+00
  4.143  0.109E+00  0.109E+00
  4.153  0.110E+00  0.110E+00
  4.163  0.110E+00  0.110E+00
  4.173  0.110E+00  0.110E+00
  4.183  0.110E+00  0.110E+00
  4.193  0.110E+00  0.110E+00
  4.203  0.111E+00  0.111E+00
  4.213  0.111E+00  0.111E+00
  4.223  0.111E+00  0.111E+00
  4.233  0.111E+00  0.111E+00
  4.243  0.111E+00  0.111E+00
  4.253  0.111E+00  0.111E+00
  4.263  0.111E+00  0.111E+00
  4.273  0.111E+00  0.111E+00
  4.283  0.111E+00  0.111E+00
  4.293  0.111E+00  0.111E+00
  4.303  0.111E+00  0.111E+00
  4.313  0.111E+00  0.111E+00
  4.323  0.112E+00  0.112E+00
  4.333  0.112E+00  0.112E+00
  4.343  0.112E+00  0.112E+00
  4.353  0.113E+00  0.113E+00
  4.363  0.114E+00  0.114E+00
  4.373  0.114E+00  0.114E+00
  4.383  0.115E+00  0.115E+00
  4.393  0.116E+00  0.116E+00
  4.403  0.117E+00  0.117E+00
  4.413  0.117E+00  0.117E+00
  4.423  0.118E+00  0.118E+00
  4.433  0.119E+00  0.119E+00
  4.443  0.120E+00  0.120E+00
  4.453  0.120E+00  0.120E+00
  4.463  0.121E+00  0.121E+00
  4.473  0.121E+00  0.121E+00
  4.483  0.122E+00  0.122E+00
  4.493  0.122E+00  0.122E+00
  4.503  0.122E+00  0.122E+00
  4.513  0.123E+00  0.123E+00
  4.523  0.123E+00  0.123E+00
  4.533  0.123E+00  0.123E+00
  4.543  0.123E+00  0.123E+00
  4.553  0.123E+00  0.123E+00
  4.563  0.122E+00  0.122E+00
  4.573  0.122E+00  0.122E+00
  4.583  0.122E+00  0.122E+00
  4.593  0.122E+00  0.122E+00
  4.603  0.121E+00  0.121E+00
  4.613  0.121E+00  0.121E+00
  4.623  0.120E+00  0.120E+00
  4.633  0.119E+00  0.119E+00
  4.643  0.118E+00  0.118E+00
  4.653  0.117E+00  0.117E+00
  4.663  0.116E+00  0.116E+00
  4.673  0.115E+00  0.115E+00
  4.683  0.114E+00  0.114E+00
  4.693  0.112E+00  0.112E+00
  4.703  0.110E+00  0.110E+00
  4.713  0.108E+00  0.108E+00
  4.723  0.106E+00  0.106E+00
  4.733  0.104E+00  0.104E+00
  4.743  0.102E+00  0.102E+00
  4.753  0.997E-01  0.997E-01
  4.763  0.974E-01  0.974E-01
  4.773  0.950E-01  0.950E-01
  4.783  0.926E-01  0.926E-01
  4.793  0.902E-01  0.902E-01
  4.803  0.878E-01  0.878E-01
  4.813  0.855E-01  0.855E-01
  4.823  0.833E-01  0.833E-01
  4.833  0.811E-01  0.811E-01
  4.843  0.791E-01  0.791E-01
  4.853  0.771E-01  0.771E-01
  4.863  0.752E-01  0.752E-01
  4.873  0.735E-01  0.735E-01
  4.883  0.718E-01  0.718E-01
  4.893  0.702E-01  0.702E-01
  4.903  0.687E-01  0.687E-01
  4.913  0.672E-01  0.672E-01
  4.923  0.659E-01  0.659E-01
  4.933  0.645E-01  0.645E-01
  4.943  0.632E-01  0.632E-01
  4.953  0.620E-01  0.620E-01
  4.963  0.607E-01  0.607E-01
  4.973  0.595E-01  0.595E-01
  4.983  0.583E-01  0.583E-01
  4.993  0.571E-01  0.571E-01
  5.003  0.560E-01  0.560E-01
  5.013  0.548E-01  0.548E-01
  5.023  0.537E-01  0.537E-01
  5.033  0.526E-01  0.526E-01
  5.043  0.514E-01  0.514E-01
  5.053  0.503E-01  0.503E-01
  5.063  0.492E-01  0.492E-01
  5.073  0.482E-01  0.482E-01
  5.083  0.471E-01  0.471E-01
  5.093  0.461E-01  0.461E-01
  5.103  0.452E-01  0.452E-01
  5.113  0.444E-01  0.444E-01
  5.123  0.436E-01  0.436E-01
  5.133  0.430E-01  0.430E-01
  5.143  0.424E-01  0.424E-01
  5.153  0.420E-01  0.420E-01
  5.163  0.418E-01  0.418E-01
  5.173  0.416E-01  0.416E-01
  5.183  0.417E-01  0.417E-01
  5.193  0.419E-01  0.419E-01
  5.203  0.422E-01  0.422E-01
  5.213  0.426E-01  0.426E-01
  5.223  0.431E-01  0.431E-01
  5.233  0.437E-01  0.437E-01
  5.243  0.444E-01  0.444E-01
  5.253  0.451E-01  0.451E-01
  5.263  0.458E-01  0.458E-01
  5.273  0.464E-01  0.464E-01
  5.283  0.470E-01  0.470E-01
  5.293  0.476E-01  0.476E-01
  5.303  0.481E-01  0.481E-01
  5.313  0.485E-01  0.485E-01
  5.323  0.488E-01  0.488E-01
  5.333  0.490E-01  0.490E-01
  5.343  0.491E-01  0.491E-01
  5.353  0.491E-01  0.491E-01
  5.363  0.490E-01  0.490E-01
  5.373  0.489E-01  0.489E-01
  5.383  0.487E-01  0.487E-01
  5.393  0.485E-01  0.485E-01
  5.403  0.482E-01  0.482E-01
  5.413  0.479E-01  0.479E-01
  5.423  0.475E-01  0.475E-01
  5.433  0.471E-01  0.471E-01
  5.443  0.466E-01  0.466E-01
  5.453  0.461E-01  0.461E-01
  5.463  0.455E-01  0.455E-01
  5.473  0.449E-01  0.449E-01
  5.483  0.442E-01  0.442E-01
  5.493  0.434E-01  0.434E-01
  5.503  0.425E-01  0.425E-01
  5.513  0.416E-01  0.416E-01
  5.523  0.406E-01  0.406E-01
  5.533  0.396E-01  0.396E-01
  5.543  0.385E-01  0.385E-01
  5.553  0.375E-01  0.375E-01
  5.563  0.365E-01  0.365E-01
  5.573  0.355E-01  0.355E-01
  5.583  0.346E-01  0.346E-01
  5.593  0.338E-01  0.338E-01
  5.603  0.332E-01  0.332E-01
  5.613  0.328E-01  0.328E-01
  5.623  0.326E-01  0.326E-01
  5.633  0.326E-01  0.326E-01
  5.643  0.328E-01  0.328E-01
  5.653  0.333E-01  0.333E-01
  5.663  0.340E-01  0.340E-01
  5.673  0.350E-01  0.350E-01
  5.683  0.362E-01  0.362E-01
  5.693  0.376E-01  0.376E-01
  5.703  0.391E-01  0.391E-01
  5.713  0.407E-01  0.407E-01
  5.723  0.424E-01  0.424E-01
  5.733  0.441E-01  0.441E-01
  5.743  0.457E-01  0.457E-01
  5.753  0.472E-01  0.472E-01
  5.763  0.486E-01  0.486E-01
  5.773  0.497E-01  0.497E-01
  5.783  0.506E-01  0.506E-01
  5.793  0.513E-01  0.513E-01
  5.803  0.516E-01  0.516E-01
  5.813  0.516E-01  0.516E-01
  5.823  0.514E-01  0.514E-01
  5.833  0.508E-01  0.508E-01
  5.843  0.500E-01  0.500E-01
  5.853  0.489E-01  0.489E-01
  5.863  0.477E-01  0.477E-01
  5.873  0.463E-01  0.463E-01
  5.883  0.449E-01  0.449E-01
  5.893  0.434E-01  0.434E-01
  5.903  0.419E-01  0.419E-01
  5.913  0.405E-01  0.405E-01
  5.923  0.391E-01  0.391E-01
  5.933  0.380E-01  0.380E-01
  5.943  0.369E-01  0.369E-01
  5.953  0.361E-01  0.361E-01
  5.963  0.355E-01  0.355E-01
  5.973  0.350E-01  0.350E-01
  5.983  0.348E-01  0.348E-01
  5.993  0.347E-01  0.347E-01
  6.003  0.348E-01  0.348E-01
  6.013  0.349E-01  0.349E-01
  6.023  0.352E-01  0.352E-01
  6.033  0.355E-01  0.355E-01
  6.043  0.359E-01  0.359E-01
  6.053  0.362E-01  0.362E-01
  6.063  0.364E-01  0.364E-01
  6.073  0.366E-01  0.366E-01
  6.083  0.367E-01  0.367E-01
  6.093  0.367E-01  0.367E-01
  6.103  0.365E-01  0.365E-01
  6.113  0.362E-01  0.362E-01
  6.123  0.358E-01  0.358E-01
  6.133  0.352E-01  0.352E-01
  6.143  0.346E-01  0.346E-01
  6.153  0.339E-01  0.339E-01
  6.163  0.332E-01  0.332E-01
  6.173  0.324E-01  0.324E-01
  6.183  0.317E-01  0.317E-01
  6.193  0.310E-01  0.310E-01
  6.203  0.304E-01  0.304E-01
  6.213  0.300E-01  0.300E-01
  6.223  0.296E-01  0.296E-01
  6.233  0.294E-01  0.294E-01
  6.243  0.294E-01  0.294E-01
  6.253  0.295E-01  0.295E-01
  6.263  0.298E-01  0.298E-01
  6.273  0.303E-01  0.303E-01
  6.283  0.310E-01  0.310E-01
  6.293  0.317E-01  0.317E-01
  6.303  0.326E-01  0.326E-01
  6.313  0.337E-01  0.337E-01
  6.323  0.347E-01  0.347E-01
  6.333  0.359E-01  0.359E-01
  6.343  0.370E-01  0.370E-01
  6.353  0.381E-01  0.381E-01
  6.363  0.391E-01  0.391E-01
  6.373  0.401E-01  0.401E-01
  6.383  0.409E-01  0.409E-01
  6.393  0.416E-01  0.416E-01
  6.403  0.421E-01  0.421E-01
  6.413  0.424E-01  0.424E-01
  6.423  0.426E-01  0.426E-01
  6.433  0.425E-01  0.425E-01
  6.443  0.422E-01  0.422E-01
  6.453  0.417E-01  0.417E-01
  6.463  0.410E-01  0.410E-01
  6.473  0.402E-01  0.402E-01
  6.483  0.392E-01  0.392E-01
  6.493  0.381E-01  0.381E-01
  6.503  0.370E-01  0.370E-01
  6.513  0.358E-01  0.358E-01
  6.523  0.345E-01  0.345E-01
  6.533  0.333E-01  0.333E-01
  6.543  0.322E-01  0.322E-01
  6.553  0.310E-01  0.310E-01
  6.563  0.300E-01  0.300E-01
  6.573  0.291E-01  0.291E-01
  6.583  0.283E-01  0.283E-01
  6.593  0.276E-01  0.276E-01
  6.603  0.271E-01  0.271E-01
  6.613  0.266E-01  0.266E-01
  6.623  0.263E-01  0.263E-01
  6.633  0.261E-01  0.261E-01
  6.643  0.260E-01  0.260E-01
  6.653  0.259E-01  0.259E-01
  6.663  0.260E-01  0.260E-01
  6.673  0.260E-01  0.260E-01
  6.683  0.261E-01  0.261E-01
  6.693  0.262E-01  0.262E-01
  6.703  0.264E-01  0.264E-01
  6.713  0.265E-01  0.265E-01
  6.723  0.265E-01  0.265E-01
  6.733  0.266E-01  0.266E-01
  6.743  0.266E-01  0.266E-01
  6.753  0.266E-01  0.266E-01
  6.763  0.265E-01  0.265E-01
  6.773  0.265E-01  0.265E-01
  6.783  0.264E-01  0.264E-01
  6.793  0.263E-01  0.263E-01
  6.803  0.261E-01  0.261E-01
  6.813  0.261E-01  0.261E-01
  6.823  0.260E-01  0.260E-01
  6.833  0.259E-01  0.259E-01
  6.843  0.259E-01  0.259E-01
  6.853  0.260E-01  0.260E-01
  6.863  0.261E-01  0.261E-01
  6.873  0.263E-01  0.263E-01
  6.883  0.265E-01  0.265E-01
  6.893  0.268E-01  0.268E-01
  6.903  0.272E-01  0.272E-01
  6.913  0.276E-01  0.276E-01
  6.923  0.280E-01  0.280E-01
  6.933  0.285E-01  0.285E-01
  6.943  0.291E-01  0.291E-01
  6.953  0.296E-01  0.296E-01
  6.963  0.302E-01  0.302E-01
  6.973  0.308E-01  0.308E-01
  6.983  0.314E-01  0.314E-01
  6.993  0.320E-01  0.320E-01
  7.003  0.325E-01  0.325E-01
  7.013  0.331E-01  0.331E-01
  7.023  0.336E-01  0.336E-01
  7.033  0.341E-01  0.341E-01
  7.043  0.346E-01  0.346E-01
  7.053  0.351E-01  0.351E-01
  7.063  0.355E-01  0.355E-01
  7.073  0.358E-01  0.358E-01
  7.083  0.361E-01  0.361E-01
  7.093  0.364E-01  0.364E-01
  7.103  0.366E-01  0.366E-01
  7.113  0.368E-01  0.368E-01
  7.123  0.370E-01  0.370E-01
  7.133  0.371E-01  0.371E-01
  7.143  0.372E-01  0.372E-01
  7.153  0.373E-01  0.373E-01
  7.163  0.373E-01  0.373E-01
  7.173  0.373E-01  0.373E-01
  7.183  0.374E-01  0.374E-01
  7.193  0.374E-01  0.374E-01
  7.203  0.374E-01  0.374E-01
  7.213  0.375E-01  0.375E-01
  7.223  0.376E-01  0.376E-01
  7.233  0.377E-01  0.377E-01
  7.243  0.378E-01  0.378E-01
  7.253  0.379E-01  0.379E-01
  7.263  0.380E-01  0.380E-01
  7.273  0.382E-01  0.382E-01
  7.283  0.384E-01  0.384E-01
  7.293  0.385E-01  0.385E-01
  7.303  0.387E-01  0.387E-01
  7.313  0.389E-01  0.389E-01
  7.323  0.391E-01  0.391E-01
  7.333  0.393E-01  0.393E-01
  7.343  0.395E-01  0.395E-01
  7.353  0.397E-01  0.397E-01
  7.363  0.399E-01  0.399E-01
  7.373  0.401E-01  0.401E-01
  7.383  0.403E-01  0.403E-01
  7.393  0.405E-01  0.405E-01
  7.403  0.407E-01  0.407E-01
  7.413  0.409E-01  0.409E-01
  7.423  0.412E-01  0.412E-01
  7.433  0.414E-01  0.414E-01
  7.443  0.418E-01  0.418E-01
  7.453  0.421E-01  0.421E-01
  7.463  0.425E-01  0.425E-01
  7.473  0.429E-01  0.429E-01
  7.483  0.434E-01  0.434E-01
  7.493  0.439E-01  0.439E-01
  7.503  0.445E-01  0.445E-01
  7.513  0.451E-01  0.451E-01
  7.523  0.457E-01  0.457E-01
  7.533  0.463E-01  0.463E-01
  7.543  0.470E-01  0.470E-01
  7.553  0.476E-01  0.476E-01
  7.563  0.483E-01  0.483E-01
  7.573  0.489E-01  0.489E-01
  7.583  0.494E-01  0.494E-01
  7.593  0.500E-01  0.500E-01
  7.603  0.504E-01  0.504E-01
  7.613  0.509E-01  0.509E-01
  7.623  0.512E-01  0.512E-01
  7.633  0.515E-01  0.515E-01
  7.643  0.517E-01  0.517E-01
  7.653  0.518E-01  0.518E-01
  7.663  0.519E-01  0.519E-01
  7.673  0.518E-01  0.518E-01
  7.683  0.517E-01  0.517E-01
  7.693  0.516E-01  0.516E-01
  7.703  0.513E-01  0.513E-01
  7.713  0.510E-01  0.510E-01
  7.723  0.506E-01  0.506E-01
  7.733  0.502E-01  0.502E-01
  7.743  0.497E-01  0.497E-01
  7.753  0.491E-01  0.491E-01
  7.763  0.486E-01  0.486E-01
  7.773  0.480E-01  0.480E-01
  7.783  0.474E-01  0.474E-01
  7.793  0.467E-01  0.467E-01
  7.803  0.461E-01  0.461E-01
  7.813  0.455E-01  0.455E-01
  7.823  0.449E-01  0.449E-01
  7.833  0.443E-01  0.443E-01
  7.843  0.438E-01  0.438E-01
  7.853  0.433E-01  0.433E-01
  7.863  0.429E-01  0.429E-01
  7.873  0.425E-01  0.425E-01
  7.883  0.422E-01  0.422E-01
  7.893  0.420E-01  0.420E-01
  7.903  0.419E-01  0.419E-01
  7.913  0.419E-01  0.419E-01
  7.923  0.420E-01  0.420E-01
  7.933  0.421E-01  0.421E-01
  7.943  0.423E-01  0.423E-01
  7.953  0.427E-01  0.427E-01
  7.963  0.430E-01  0.430E-01
  7.973  0.434E-01  0.434E-01
  7.983  0.439E-01  0.439E-01
  7.993  0.444E-01  0.444E-01
  8.003  0.449E-01  0.449E-01
  8.013  0.454E-01  0.454E-01
  8.023  0.459E-01  0.459E-01
  8.033  0.463E-01  0.463E-01
  8.043  0.468E-01  0.468E-01
  8.053  0.471E-01  0.471E-01
  8.063  0.475E-01  0.475E-01
  8.073  0.477E-01  0.477E-01
  8.083  0.479E-01  0.479E-01
  8.093  0.480E-01  0.480E-01
  8.103  0.481E-01  0.481E-01
  8.113  0.481E-01  0.481E-01
  8.123  0.480E-01  0.480E-01
  8.133  0.478E-01  0.478E-01
  8.143  0.475E-01  0.475E-01
  8.153  0.472E-01  0.472E-01
  8.163  0.468E-01  0.468E-01
  8.173  0.464E-01  0.464E-01
  8.183  0.459E-01  0.459E-01
  8.193  0.453E-01  0.453E-01
  8.203  0.447E-01  0.447E-01
  8.213  0.440E-01  0.440E-01
  8.223  0.434E-01  0.434E-01
  8.233  0.427E-01  0.427E-01
  8.243  0.420E-01  0.420E-01
  8.253  0.414E-01  0.414E-01
  8.263  0.407E-01  0.407E-01
  8.273  0.401E-01  0.401E-01
  8.283  0.396E-01  0.396E-01
  8.293  0.391E-01  0.391E-01
  8.303  0.387E-01  0.387E-01
  8.313  0.383E-01  0.383E-01
  8.323  0.381E-01  0.381E-01
  8.333  0.379E-01  0.379E-01
  8.343  0.378E-01  0.378E-01
  8.353  0.377E-01  0.377E-01
  8.363  0.377E-01  0.377E-01
  8.373  0.378E-01  0.378E-01
  8.383  0.379E-01  0.379E-01
  8.393  0.380E-01  0.380E-01
  8.403  0.381E-01  0.381E-01
  8.413  0.382E-01  0.382E-01
  8.423  0.383E-01  0.383E-01
  8.433  0.384E-01  0.384E-01
  8.443  0.384E-01  0.384E-01
  8.453  0.383E-01  0.383E-01
  8.463  0.382E-01  0.382E-01
  8.473  0.380E-01  0.380E-01
  8.483  0.377E-01  0.377E-01
  8.493  0.373E-01  0.373E-01
  8.503  0.368E-01  0.368E-01
  8.513  0.363E-01  0.363E-01
  8.523  0.357E-01  0.357E-01
  8.533  0.350E-01  0.350E-01
  8.543  0.343E-01  0.343E-01
  8.553  0.335E-01  0.335E-01
  8.563  0.328E-01  0.328E-01
  8.573  0.320E-01  0.320E-01
  8.583  0.312E-01  0.312E-01
  8.593  0.305E-01  0.305E-01
  8.603  0.298E-01  0.298E-01
  8.613  0.291E-01  0.291E-01
  8.623  0.286E-01  0.286E-01
  8.633  0.280E-01  0.280E-01
  8.643  0.276E-01  0.276E-01
  8.653  0.272E-01  0.272E-01
  8.663  0.269E-01  0.269E-01
  8.673  0.267E-01  0.267E-01
  8.683  0.266E-01  0.266E-01
  8.693  0.266E-01  0.266E-01
  8.703  0.266E-01  0.266E-01
  8.713  0.266E-01  0.266E-01
  8.723  0.267E-01  0.267E-01
  8.733  0.269E-01  0.269E-01
  8.743  0.270E-01  0.270E-01
  8.753  0.272E-01  0.272E-01
  8.763  0.273E-01  0.273E-01
  8.773  0.274E-01  0.274E-01
  8.783  0.275E-01  0.275E-01
  8.793  0.276E-01  0.276E-01
  8.803  0.276E-01  0.276E-01
  8.813  0.276E-01  0.276E-01
  8.823  0.275E-01  0.275E-01
  8.833  0.273E-01  0.273E-01
  8.843  0.272E-01  0.272E-01
  8.853  0.269E-01  0.269E-01
  8.863  0.266E-01  0.266E-01
  8.873  0.263E-01  0.263E-01
  8.883  0.260E-01  0.260E-01
  8.893  0.257E-01  0.257E-01
  8.903  0.253E-01  0.253E-01
  8.913  0.250E-01  0.250E-01
  8.923  0.246E-01  0.246E-01
  8.933  0.243E-01  0.243E-01
  8.943  0.240E-01  0.240E-01
  8.953  0.237E-01  0.237E-01
  8.963  0.234E-01  0.234E-01
  8.973  0.232E-01  0.232E-01
  8.983  0.230E-01  0.230E-01
  8.993  0.227E-01  0.227E-01
  9.003  0.225E-01  0.225E-01
  9.013  0.223E-01  0.223E-01
  9.023  0.222E-01  0.222E-01
  9.033  0.220E-01  0.220E-01
  9.043  0.218E-01  0.218E-01
  9.053  0.216E-01  0.216E-01
  9.063  0.213E-01  0.213E-01
  9.073  0.211E-01  0.211E-01
  9.083  0.208E-01  0.208E-01
  9.093  0.206E-01  0.206E-01
  9.103  0.203E-01  0.203E-01
  9.113  0.200E-01  0.200E-01
  9.123  0.197E-01  0.197E-01
  9.133  0.193E-01  0.193E-01
  9.143  0.190E-01  0.190E-01
  9.153  0.186E-01  0.186E-01
  9.163  0.182E-01  0.182E-01
  9.173  0.178E-01  0.178E-01
  9.183  0.174E-01  0.174E-01
  9.193  0.170E-01  0.170E-01
  9.203  0.166E-01  0.166E-01
  9.213  0.162E-01  0.162E-01
  9.223  0.158E-01  0.158E-01
  9.233  0.154E-01  0.154E-01
  9.243  0.150E-01  0.150E-01
  9.253  0.147E-01  0.147E-01
  9.263  0.144E-01  0.144E-01
  9.273  0.141E-01  0.141E-01
  9.283  0.138E-01  0.138E-01
  9.293  0.135E-01  0.135E-01
  9.303  0.133E-01  0.133E-01
  9.313  0.131E-01  0.131E-01
  9.323  0.129E-01  0.129E-01
  9.333  0.128E-01  0.128E-01
  9.343  0.127E-01  0.127E-01
  9.353  0.125E-01  0.125E-01
  9.363  0.124E-01  0.124E-01
  9.373  0.124E-01  0.124E-01
  9.383  0.123E-01  0.123E-01
  9.393  0.122E-01  0.122E-01
  9.403  0.121E-01  0.121E-01
  9.413  0.121E-01  0.121E-01
  9.423  0.120E-01  0.120E-01
  9.433  0.119E-01  0.119E-01
  9.443  0.118E-01  0.118E-01
  9.453  0.117E-01  0.117E-01
  9.463  0.116E-01  0.116E-01
  9.473  0.115E-01  0.115E-01
  9.483  0.113E-01  0.113E-01
  9.493  0.112E-01  0.112E-01
  9.503  0.110E-01  0.110E-01
  9.513  0.108E-01  0.108E-01
  9.523  0.106E-01  0.106E-01
  9.533  0.104E-01  0.104E-01
  9.543  0.102E-01  0.102E-01
  9.553  0.997E-02  0.997E-02
  9.563  0.976E-02  0.976E-02
  9.573  0.956E-02  0.956E-02
  9.583  0.938E-02  0.938E-02
  9.593  0.920E-02  0.920E-02
  9.603  0.904E-02  0.904E-02
  9.613  0.890E-02  0.890E-02
  9.623  0.877E-02  0.877E-02
  9.633  0.865E-02  0.865E-02
  9.643  0.853E-02  0.853E-02
  9.653  0.843E-02  0.843E-02
  9.663  0.832E-02  0.832E-02
  9.673  0.822E-02  0.822E-02
  9.683  0.811E-02  0.811E-02
  9.693  0.799E-02  0.799E-02
  9.703  0.786E-02  0.786E-02
  9.713  0.771E-02  0.771E-02
  9.723  0.755E-02  0.755E-02
  9.733  0.737E-02  0.737E-02
  9.743  0.718E-02  0.718E-02
  9.753  0.697E-02  0.697E-02
  9.763  0.675E-02  0.675E-02
  9.773  0.652E-02  0.652E-02
  9.783  0.628E-02  0.628E-02
  9.793  0.603E-02  0.603E-02
  9.803  0.578E-02  0.578E-02
  9.813  0.553E-02  0.553E-02
  9.823  0.528E-02  0.528E-02
  9.833  0.504E-02  0.504E-02
  9.843  0.480E-02  0.480E-02
  9.853  0.457E-02  0.457E-02
  9.863  0.435E-02  0.435E-02
  9.873  0.415E-02  0.415E-02
  9.883  0.395E-02  0.395E-02
  9.893  0.377E-02  0.377E-02
  9.903  0.361E-02  0.361E-02
  9.913  0.345E-02  0.345E-02
  9.923  0.331E-02  0.331E-02
  9.933  0.318E-02  0.318E-02
  9.943  0.307E-02  0.307E-02
  9.953  0.297E-02  0.297E-02
  9.963  0.288E-02  0.288E-02
  9.973  0.280E-02  0.280E-02
  9.983  0.273E-02  0.273E-02
  9.993  0.267E-02  0.267E-02
 10.003  0.262E-02  0.262E-02
 10.013  0.257E-02  0.257E-02
 10.023  0.253E-02  0.253E-02
 10.033  0.250E-02  0.250E-02
 10.043  0.247E-02  0.247E-02
 10.053  0.245E-02  0.245E-02
 10.063  0.242E-02  0.242E-02
 10.073  0.240E-02  0.240E-02
 10.083  0.238E-02  0.238E-02
 10.093  0.236E-02  0.236E-02
 10.103  0.234E-02  0.234E-02
 10.113  0.232E-02  0.232E-02
 10.123  0.230E-02  0.230E-02
 10.133  0.228E-02  0.228E-02
 10.143  0.225E-02  0.225E-02
 10.153  0.223E-02  0.223E-02
 10.163  0.220E-02  0.220E-02
 10.173  0.217E-02  0.217E-02
 10.183  0.213E-02  0.213E-02
 10.193  0.209E-02  0.209E-02
 10.203  0.205E-02  0.205E-02
 10.213  0.200E-02  0.200E-02
 10.223  0.195E-02  0.195E-02
 10.233  0.190E-02  0.190E-02
 10.243  0.184E-02  0.184E-02
 10.253  0.178E-02  0.178E-02
 10.263  0.171E-02  0.171E-02
 10.273  0.164E-02  0.164E-02
 10.283  0.157E-02  0.157E-02
 10.293  0.150E-02  0.150E-02
 10.303  0.143E-02  0.143E-02
 10.313  0.135E-02  0.135E-02
 10.323  0.128E-02  0.128E-02
 10.333  0.121E-02  0.121E-02
 10.343  0.114E-02  0.114E-02
 10.353  0.107E-02  0.107E-02
 10.363  0.996E-03  0.996E-03
 10.373  0.928E-03  0.928E-03
 10.383  0.863E-03  0.863E-03
 10.393  0.800E-03  0.800E-03
 10.403  0.739E-03  0.739E-03
 10.413  0.681E-03  0.681E-03
 10.423  0.626E-03  0.626E-03
 10.433  0.573E-03  0.573E-03
 10.443  0.524E-03  0.524E-03
 10.453  0.479E-03  0.479E-03
 10.463  0.437E-03  0.437E-03
 10.473  0.398E-03  0.398E-03
 10.483  0.364E-03  0.364E-03
 10.493  0.334E-03  0.334E-03
 10.503  0.307E-03  0.307E-03
 10.513  0.284E-03  0.284E-03
 10.523  0.266E-03  0.266E-03
 10.533  0.251E-03  0.251E-03
 10.543  0.239E-03  0.239E-03
 10.553  0.231E-03  0.231E-03
 10.563  0.226E-03  0.226E-03
 10.573  0.223E-03  0.223E-03
 10.583  0.222E-03  0.222E-03
 10.593  0.224E-03  0.224E-03
 10.603  0.226E-03  0.226E-03
 10.613  0.229E-03  0.229E-03
 10.623  0.233E-03  0.233E-03
 10.633  0.236E-03  0.236E-03
 10.643  0.239E-03  0.239E-03
 10.653  0.241E-03  0.241E-03
 10.663  0.242E-03  0.242E-03
 10.673  0.241E-03  0.241E-03
 10.683  0.239E-03  0.239E-03
 10.693  0.235E-03  0.235E-03
 10.703  0.229E-03  0.229E-03
 10.713  0.222E-03  0.222E-03
 10.723  0.213E-03  0.213E-03
 10.733  0.203E-03  0.203E-03
 10.743  0.191E-03  0.191E-03
 10.753  0.179E-03  0.179E-03
 10.763  0.166E-03  0.166E-03
 10.773  0.152E-03  0.152E-03
 10.783  0.139E-03  0.139E-03
 10.793  0.125E-03  0.125E-03
 10.803  0.112E-03  0.112E-03
 10.813  0.994E-04  0.994E-04
 10.823  0.874E-04  0.874E-04
 10.833  0.762E-04  0.762E-04
 10.843  0.659E-04  0.659E-04
 10.853  0.565E-04  0.565E-04
 10.863  0.481E-04  0.481E-04
 10.873  0.405E-04  0.405E-04
 10.883  0.339E-04  0.339E-04
 10.893  0.281E-04  0.281E-04
 10.903  0.232E-04  0.232E-04
 10.913  0.189E-04  0.189E-04
 10.923  0.153E-04  0.153E-04
 10.933  0.123E-04  0.123E-04
 10.943  0.986E-05  0.986E-05
 10.953  0.781E-05  0.781E-05
 10.963  0.614E-05  0.614E-05
 10.973  0.479E-05  0.479E-05
 10.983  0.371E-05  0.371E-05
 10.993  0.285E-05  0.285E-05
 11.003  0.217E-05  0.217E-05
 11.013  0.164E-05  0.164E-05
 11.023  0.123E-05  0.123E-05
 11.033  0.915E-06  0.915E-06
 11.043  0.675E-06  0.675E-06
 11.053  0.494E-06  0.494E-06
 11.063  0.358E-06  0.358E-06
 11.073  0.258E-06  0.258E-06
 11.083  0.184E-06  0.184E-06
 11.093  0.130E-06  0.130E-06
 11.103  0.908E-07  0.908E-07
 11.113  0.630E-07  0.630E-07
 11.123  0.433E-07  0.433E-07
 11.133  0.295E-07  0.295E-07
 11.143  0.199E-07  0.199E-07
 11.153  0.133E-07  0.133E-07
 11.163  0.880E-08  0.880E-08
 11.173  0.577E-08  0.577E-08
 11.183  0.374E-08  0.374E-08
 11.193  0.240E-08  0.240E-08
 11.203  0.153E-08  0.153E-08
 11.213  0.963E-09  0.963E-09
 11.223  0.600E-09  0.600E-09
 11.233  0.371E-09  0.371E-09
 11.243  0.226E-09  0.226E-09
 11.253  0.137E-09  0.137E-09
 11.263  0.819E-10  0.819E-10
 11.273  0.485E-10  0.485E-10
 11.283  0.284E-10  0.284E-10
 11.293  0.165E-10  0.165E-10
 11.303  0.946E-11  0.946E-11
 11.313  0.537E-11  0.537E-11
 11.323  0.302E-11  0.302E-11
 11.333  0.168E-11  0.168E-11
 11.343  0.923E-12  0.923E-12
 11.353  0.503E-12  0.503E-12
 11.363  0.271E-12  0.271E-12
 11.373  0.144E-12  0.144E-12
 11.383  0.756E-13  0.756E-13
 11.393  0.395E-13  0.395E-13
 11.403  0.204E-13  0.204E-13
 11.413  0.104E-13  0.104E-13
 11.423  0.526E-14  0.526E-14
 11.433  0.263E-14  0.263E-14
 11.443  0.130E-14  0.130E-14
 11.453  0.621E-15  0.621E-15
 11.463  0.301E-15  0.301E-15
 11.473  0.144E-15  0.144E-15
 11.483  0.381E-25  0.381E-25
 11.493  0.195E-25  0.195E-25
 11.503  0.993E-26  0.993E-26
 11.513  0.497E-26  0.497E-26
 11.523  0.248E-26  0.248E-26
 11.533  0.869E-27  0.869E-27
 11.543  0.432E-27  0.432E-27
 11.553  0.213E-27  0.213E-27
 11.563  0.104E-27  0.104E-27
 11.573  0.500E-28  0.500E-28
 11.583  0.939E-29  0.939E-29
 11.593  0.450E-29  0.450E-29
 11.603  0.214E-29  0.214E-29
 11.613  0.000E+00  0.000E+00
 11.623  0.000E+00  0.000E+00
 11.633  0.000E+00  0.000E+00
 11.643  0.000E+00  0.000E+00
 11.653  0.000E+00  0.000E+00
 11.663  0.000E+00  0.000E+00
 11.673  0.000E+00  0.000E+00
 11.683  0.000E+00  0.000E+00
 11.693  0.000E+00  0.000E+00
 11.703  0.000E+00  0.000E+00
 11.713  0.000E+00  0.000E+00
 11.723  0.000E+00  0.000E+00
 11.733  0.000E+00  0.000E+00
 11.743  0.000E+00  0.000E+00
 11.753  0.000E+00  0.000E+00
 11.763  0.000E+00  0.000E+00
 11.773  0.000E+00  0.000E+00
 11.783  0.000E+00  0.000E+00
 11.793  0.000E+00  0.000E+00
 11.803  0.000E+00  0.000E+00
 11.813  0.000E+00  0.000E+00
 11.823  0.000E+00  0.000E+00
 11.833  0.000E+00  0.000E+00
 11.843  0.000E+00  0.000E+00
 11.853  0.000E+00  0.000E+00
 11.863  0.000E+00  0.000E+00
 11.873  0.000E+00  0.000E+00
 11.883  0.000E+00  0.000E+00
 11.893  0.000E+00  0.000E+00
 11.903  0.000E+00  0.000E+00
 11.913  0.000E+00  0.000E+00
 11.923  0.000E+00  0.000E+00
 11.933  0.000E+00  0.000E+00
 11.943  0.000E+00  0.000E+00
 11.953  0.000E+00  0.000E+00
 11.963  0.000E+00  0.000E+00
 11.973  0.000E+00  0.000E+00
 11.983  0.000E+00  0.000E+00
 11.993  0.000E+00  0.000E+00
 12.003  0.000E+00  0.000E+00
 12.013  0.000E+00  0.000E+00
 12.023  0.000E+00  0.000E+00
 12.033  0.000E+00  0.000E+00
 12.043  0.000E+00  0.000E+00
 12.053  0.000E+00  0.000E+00
 12.063  0.000E+00  0.000E+00
 12.073  0.000E+00  0.000E+00
 12.083  0.000E+00  0.000E+00
 12.093  0.000E+00  0.000E+00
 12.103  0.000E+00  0.000E+00
 12.113  0.000E+00  0.000E+00
 12.123  0.000E+00  0.000E+00
 12.133  0.000E+00  0.000E+00
 12.143  0.000E+00  0.000E+00
 12.153  0.000E+00  0.000E+00
 12.163  0.000E+00  0.000E+00
 12.173  0.000E+00  0.000E+00
 12.183  0.000E+00  0.000E+00
 12.193  0.000E+00  0.000E+00
 12.203  0.000E+00  0.000E+00
 12.213  0.000E+00  0.000E+00
 12.223  0.000E+00  0.000E+00
 12.233  0.000E+00  0.000E+00
 12.243  0.000E+00  0.000E+00
 12.253  0.000E+00  0.000E+00
 12.263  0.000E+00  0.000E+00
 12.273  0.000E+00  0.000E+00
 12.283  0.000E+00  0.000E+00
 12.293  0.000E+00  0.000E+00
 12.303  0.000E+00  0.000E+00
 12.313  0.000E+00  0.000E+00
 12.323  0.000E+00  0.000E+00
 12.333  0.000E+00  0.000E+00
 12.343  0.000E+00  0.000E+00
 12.353  0.000E+00  0.000E+00
 12.363  0.000E+00  0.000E+00
 12.373  0.000E+00  0.000E+00
 12.383  0.000E+00  0.000E+00
 12.393  0.000E+00  0.000E+00
 12.403  0.000E+00  0.000E+00
 12.413  0.000E+00  0.000E+00
 12.423  0.000E+00  0.000E+00
 12.433  0.000E+00  0.000E+00
 12.443  0.000E+00  0.000E+00
 12.453  0.000E+00  0.000E+00
 12.463  0.000E+00  0.000E+00
 12.473  0.000E+00  0.000E+00
 12.483  0.000E+00  0.000E+00
 12.493  0.000E+00  0.000E+00
 12.503  0.000E+00  0.000E+00
 12.513  0.000E+00  0.000E+00
 12.523  0.000E+00  0.000E+00
 12.533  0.000E+00  0.000E+00
 12.543  0.000E+00  0.000E+00
 12.553  0.000E+00  0.000E+00
 12.563  0.000E+00  0.000E+00
 12.573  0.000E+00  0.000E+00
 12.583  0.000E+00  0.000E+00
 12.593  0.000E+00  0.000E+00
 12.603  0.000E+00  0.000E+00
 12.613  0.000E+00  0.000E+00
 12.623  0.000E+00  0.000E+00
 12.633  0.000E+00  0.000E+00
 12.643  0.000E+00  0.000E+00
 12.653  0.000E+00  0.000E+00
 12.663  0.000E+00  0.000E+00
 12.673  0.000E+00  0.000E+00
 12.683  0.000E+00  0.000E+00
 12.693  0.000E+00  0.000E+00
 12.703  0.000E+00  0.000E+00
 12.713  0.000E+00  0.000E+00
 12.723  0.000E+00  0.000E+00
 12.733  0.000E+00  0.000E+00
 12.743  0.000E+00  0.000E+00
 12.753  0.000E+00  0.000E+00
 12.763  0.000E+00  0.000E+00
 12.773  0.000E+00  0.000E+00
 12.783  0.000E+00  0.000E+00
 12.793  0.000E+00  0.000E+00
 12.803  0.000E+00  0.000E+00
 12.813  0.000E+00  0.000E+00
 12.823  0.000E+00  0.000E+00
 12.833  0.000E+00  0.000E+00
 12.843  0.000E+00  0.000E+00
 12.853  0.000E+00  0.000E+00
 12.863  0.000E+00  0.000E+00
 12.873  0.000E+00  0.000E+00
 12.883  0.000E+00  0.000E+00
 12.893  0.000E+00  0.000E+00
 12.903  0.000E+00  0.000E+00
 12.913  0.000E+00  0.000E+00
 12.923  0.000E+00  0.000E+00
 12.933  0.000E+00  0.000E+00
 12.943  0.000E+00  0.000E+00
 12.953  0.000E+00  0.000E+00
 12.963  0.000E+00  0.000E+00
 12.973  0.000E+00  0.000E+00
 12.983  0.000E+00  0.000E+00
 12.993  0.000E+00  0.000E+00
 13.003  0.000E+00  0.000E+00
 13.013  0.000E+00  0.000E+00
 13.023  0.000E+00  0.000E+00
 13.033  0.000E+00  0.000E+00
 13.043  0.000E+00  0.000E+00
 13.053  0.000E+00  0.000E+00
 13.063  0.000E+00  0.000E+00
 13.073  0.000E+00  0.000E+00
 13.083  0.000E+00  0.000E+00
 13.093  0.000E+00  0.000E+00
 13.103  0.000E+00  0.000E+00
 13.113  0.000E+00  0.000E+00
 13.123  0.000E+00  0.000E+00
 13.133  0.000E+00  0.000E+00
 13.143  0.000E+00  0.000E+00
 13.153  0.000E+00  0.000E+00
 13.163  0.000E+00  0.000E+00
 13.173  0.000E+00  0.000E+00
 13.183  0.000E+00  0.000E+00
 13.193  0.000E+00  0.000E+00
 13.203  0.000E+00  0.000E+00
 13.213  0.000E+00  0.000E+00
 13.223  0.000E+00  0.000E+00
 13.233  0.000E+00  0.000E+00
 13.243  0.000E+00  0.000E+00
 13.253  0.000E+00  0.000E+00
 13.263  0.000E+00  0.000E+00
 13.273  0.000E+00  0.000E+00
 13.283  0.000E+00  0.000E+00
 13.293  0.000E+00  0.000E+00
 13.303  0.000E+00  0.000E+00
 13.313  0.000E+00  0.000E+00
 13.323  0.000E+00  0.000E+00
 13.333  0.000E+00  0.000E+00
 13.343  0.000E+00  0.000E+00
 13.353  0.000E+00  0.000E+00
 13.363  0.000E+00  0.000E+00
 13.373  0.000E+00  0.000E+00
 13.383  0.000E+00  0.000E+00
 13.393  0.000E+00  0.000E+00
 13.403  0.000E+00  0.000E+00
 13.413  0.000E+00  0.000E+00
 13.423  0.000E+00  0.000E+00
 13.433  0.000E+00  0.000E+00
 13.443  0.000E+00  0.000E+00
 13.453  0.000E+00  0.000E+00
 13.463  0.000E+00  0.000E+00
 13.473  0.000E+00  0.000E+00
 13.483  0.000E+00  0.000E+00
 13.493  0.000E+00  0.000E+00
 13.503  0.000E+00  0.000E+00
 13.513  0.000E+00  0.000E+00
 13.523  0.000E+00  0.000E+00
 13.533  0.000E+00  0.000E+00
 13.543  0.000E+00  0.000E+00
 13.553  0.000E+00  0.000E+00
 13.563  0.000E+00  0.000E+00
 13.573  0.000E+00  0.000E+00
 13.583  0.000E+00  0.000E+00
 13.593  0.000E+00  0.000E+00
 13.603  0.000E+00  0.000E+00
 13.613  0.000E+00  0.000E+00
 13.623  0.000E+00  0.000E+00
 13.633  0.000E+00  0.000E+00
 13.643  0.000E+00  0.000E+00
 13.653  0.000E+00  0.000E+00
 13.663  0.000E+00  0.000E+00
 13.673  0.000E+00  0.000E+00
 13.683  0.000E+00  0.000E+00
 13.693  0.000E+00  0.000E+00
 13.703  0.000E+00  0.000E+00
 13.713  0.000E+00  0.000E+00
 13.723  0.000E+00  0.000E+00
 13.733  0.000E+00  0.000E+00
 13.743  0.000E+00  0.000E+00
 13.753  0.000E+00  0.000E+00
 13.763  0.000E+00  0.000E+00
 13.773  0.000E+00  0.000E+00
 13.783  0.000E+00  0.000E+00
 13.793  0.000E+00  0.000E+00
 13.803  0.000E+00  0.000E+00
 13.813  0.000E+00  0.000E+00
 13.823  0.000E+00  0.000E+00
 13.833  0.000E+00  0.000E+00
 13.843  0.000E+00  0.000E+00
 13.853  0.000E+00  0.000E+00
 13.863  0.000E+00  0.000E+00
 13.873  0.000E+00  0.000E+00
 13.883  0.000E+00  0.000E+00
 13.893  0.000E+00  0.000E+00
 13.903  0.000E+00  0.000E+00
 13.913  0.000E+00  0.000E+00
 13.923  0.000E+00  0.000E+00
 13.933  0.000E+00  0.000E+00
 13.943  0.000E+00  0.000E+00
 13.953  0.000E+00  0.000E+00
 13.963  0.000E+00  0.000E+00
 13.973  0.000E+00  0.000E+00
 13.983  0.000E+00  0.000E+00
 13.993  0.000E+00  0.000E+00
 14.003  0.000E+00  0.000E+00
 14.013  0.000E+00  0.000E+00
 14.023  0.000E+00  0.000E+00
 14.033  0.000E+00  0.000E+00
 14.043  0.000E+00  0.000E+00
 14.053  0.000E+00  0.000E+00
 14.063  0.000E+00  0.000E+00
 14.073  0.000E+00  0.000E+00
 14.083  0.000E+00  0.000E+00
 14.093  0.000E+00  0.000E+00
 14.103  0.000E+00  0.000E+00
 14.113  0.000E+00  0.000E+00
 14.123  0.000E+00  0.000E+00
 14.133  0.000E+00  0.000E+00
 14.143  0.000E+00  0.000E+00
 14.153  0.000E+00  0.000E+00
 14.163  0.000E+00  0.000E+00
 14.173  0.000E+00  0.000E+00
 14.183  0.000E+00  0.000E+00
 14.193  0.000E+00  0.000E+00
 14.203  0.000E+00  0.000E+00
 14.213  0.000E+00  0.000E+00
 14.223  0.000E+00  0.000E+00
 14.233  0.000E+00  0.000E+00
 14.243  0.000E+00  0.000E+00
 14.253  0.000E+00  0.000E+00
 14.263  0.000E+00  0.000E+00
 14.273  0.000E+00  0.000E+00
 14.283  0.000E+00  0.000E+00
 14.293  0.000E+00  0.000E+00
 14.303  0.000E+00  0.000E+00
 14.313  0.000E+00  0.000E+00
 14.323  0.000E+00  0.000E+00
 14.333  0.000E+00  0.000E+00
 14.343  0.000E+00  0.000E+00
 14.353  0.000E+00  0.000E+00
 14.363  0.000E+00  0.000E+00
 14.373  0.000E+00  0.000E+00
 14.383  0.000E+00  0.000E+00
 14.393  0.000E+00  0.000E+00
 14.403  0.000E+00  0.000E+00
 14.413  0.000E+00  0.000E+00
 14.423  0.000E+00  0.000E+00
 14.433  0.000E+00  0.000E+00
 14.443  0.000E+00  0.000E+00
 14.453  0.000E+00  0.000E+00
 14.463  0.000E+00  0.000E+00
 14.473  0.000E+00  0.000E+00
 14.483  0.000E+00  0.000E+00
 14.493  0.000E+00  0.000E+00
 14.503  0.000E+00  0.000E+00
 14.513  0.000E+00  0.000E+00
 14.523  0.000E+00  0.000E+00
 14.533  0.000E+00  0.000E+00
 14.543  0.000E+00  0.000E+00
 14.553  0.000E+00  0.000E+00
 14.563  0.000E+00  0.000E+00
 14.573  0.000E+00  0.000E+00
 14.583  0.000E+00  0.000E+00
 14.593  0.000E+00  0.000E+00
 14.603  0.000E+00  0.000E+00
 14.613  0.000E+00  0.000E+00
 14.623  0.000E+00  0.000E+00
 14.633  0.000E+00  0.000E+00
 14.643  0.168E-13  0.168E-13
 14.653  0.351E-13  0.351E-13
 14.663  0.727E-13  0.727E-13
 14.673  0.149E-12  0.149E-12
 14.683  0.301E-12  0.301E-12
 14.693  0.603E-12  0.603E-12
 14.703  0.119E-11  0.119E-11
 14.713  0.234E-11  0.234E-11
 14.723  0.454E-11  0.454E-11
 14.733  0.870E-11  0.870E-11
 14.743  0.165E-10  0.165E-10
 14.753  0.310E-10  0.310E-10
 14.763  0.575E-10  0.575E-10
 14.773  0.106E-09  0.106E-09
 14.783  0.192E-09  0.192E-09
 14.793  0.346E-09  0.346E-09
 14.803  0.615E-09  0.615E-09
 14.813  0.108E-08  0.108E-08
 14.823  0.188E-08  0.188E-08
 14.833  0.324E-08  0.324E-08
 14.843  0.553E-08  0.553E-08
 14.853  0.931E-08  0.931E-08
 14.863  0.155E-07  0.155E-07
 14.873  0.256E-07  0.256E-07
 14.883  0.418E-07  0.418E-07
 14.893  0.675E-07  0.675E-07
 14.903  0.108E-06  0.108E-06
 14.913  0.171E-06  0.171E-06
 14.923  0.267E-06  0.267E-06
 14.933  0.413E-06  0.413E-06
 14.943  0.632E-06  0.632E-06
 14.953  0.958E-06  0.958E-06
 14.963  0.144E-05  0.144E-05
 14.973  0.213E-05  0.213E-05
 14.983  0.313E-05  0.313E-05
 14.993  0.455E-05  0.455E-05
 15.003  0.655E-05  0.655E-05
 15.013  0.933E-05  0.933E-05
 15.023  0.132E-04  0.132E-04
 15.033  0.184E-04  0.184E-04
 15.043  0.254E-04  0.254E-04
 15.053  0.348E-04  0.348E-04
 15.063  0.472E-04  0.472E-04
 15.073  0.634E-04  0.634E-04
 15.083  0.844E-04  0.844E-04
 15.093  0.111E-03  0.111E-03
 15.103  0.146E-03  0.146E-03
 15.113  0.189E-03  0.189E-03
 15.123  0.243E-03  0.243E-03
 15.133  0.310E-03  0.310E-03
 15.143  0.393E-03  0.393E-03
 15.153  0.494E-03  0.494E-03
 15.163  0.616E-03  0.616E-03
 15.173  0.764E-03  0.764E-03
 15.183  0.941E-03  0.941E-03
 15.193  0.115E-02  0.115E-02
 15.203  0.140E-02  0.140E-02
 15.213  0.170E-02  0.170E-02
 15.223  0.204E-02  0.204E-02
 15.233  0.244E-02  0.244E-02
 15.243  0.291E-02  0.291E-02
 15.253  0.344E-02  0.344E-02
 15.263  0.406E-02  0.406E-02
 15.273  0.475E-02  0.475E-02
 15.283  0.554E-02  0.554E-02
 15.293  0.642E-02  0.642E-02
 15.303  0.740E-02  0.740E-02
 15.313  0.848E-02  0.848E-02
 15.323  0.965E-02  0.965E-02
 15.333  0.109E-01  0.109E-01
 15.343  0.123E-01  0.123E-01
 15.353  0.137E-01  0.137E-01
 15.363  0.152E-01  0.152E-01
 15.373  0.168E-01  0.168E-01
 15.383  0.183E-01  0.183E-01
 15.393  0.199E-01  0.199E-01
 15.403  0.215E-01  0.215E-01
 15.413  0.230E-01  0.230E-01
 15.423  0.245E-01  0.245E-01
 15.433  0.259E-01  0.259E-01
 15.443  0.273E-01  0.273E-01
 15.453  0.285E-01  0.285E-01
 15.463  0.297E-01  0.297E-01
 15.473  0.308E-01  0.308E-01
 15.483  0.318E-01  0.318E-01
 15.493  0.327E-01  0.327E-01
 15.503  0.336E-01  0.336E-01
 15.513  0.345E-01  0.345E-01
 15.523  0.354E-01  0.354E-01
 15.533  0.363E-01  0.363E-01
 15.543  0.373E-01  0.373E-01
 15.553  0.384E-01  0.384E-01
 15.563  0.396E-01  0.396E-01
 15.573  0.409E-01  0.409E-01
 15.583  0.424E-01  0.424E-01
 15.593  0.441E-01  0.441E-01
 15.603  0.458E-01  0.458E-01
 15.613  0.478E-01  0.478E-01
 15.623  0.498E-01  0.498E-01
 15.633  0.519E-01  0.519E-01
 15.643  0.541E-01  0.541E-01
 15.653  0.563E-01  0.563E-01
 15.663  0.586E-01  0.586E-01
 15.673  0.608E-01  0.608E-01
 15.683  0.629E-01  0.629E-01
 15.693  0.649E-01  0.649E-01
 15.703  0.668E-01  0.668E-01
 15.713  0.685E-01  0.685E-01
 15.723  0.700E-01  0.700E-01
 15.733  0.713E-01  0.713E-01
 15.743  0.723E-01  0.723E-01
 15.753  0.731E-01  0.731E-01
 15.763  0.737E-01  0.737E-01
 15.773  0.740E-01  0.740E-01
 15.783  0.740E-01  0.740E-01
 15.793  0.738E-01  0.738E-01
 15.803  0.733E-01  0.733E-01
 15.813  0.727E-01  0.727E-01
 15.823  0.718E-01  0.718E-01
 15.833  0.708E-01  0.708E-01
 15.843  0.697E-01  0.697E-01
 15.853  0.686E-01  0.686E-01
 15.863  0.675E-01  0.675E-01
 15.873  0.664E-01  0.664E-01
 15.883  0.655E-01  0.655E-01
 15.893  0.648E-01  0.648E-01
 15.903  0.644E-01  0.644E-01
 15.913  0.644E-01  0.644E-01
 15.923  0.647E-01  0.647E-01
 15.933  0.655E-01  0.655E-01
 15.943  0.667E-01  0.667E-01
 15.953  0.685E-01  0.685E-01
 15.963  0.708E-01  0.708E-01
 15.973  0.736E-01  0.736E-01
 15.983  0.768E-01  0.768E-01
 15.993  0.804E-01  0.804E-01
 16.003  0.844E-01  0.844E-01
 16.013  0.887E-01  0.887E-01
 16.023  0.931E-01  0.931E-01
 16.033  0.977E-01  0.977E-01
 16.043  0.102E+00  0.102E+00
 16.053  0.107E+00  0.107E+00
 16.063  0.111E+00  0.111E+00
 16.073  0.115E+00  0.115E+00
 16.083  0.118E+00  0.118E+00
 16.093  0.121E+00  0.121E+00
 16.103  0.124E+00  0.124E+00
 16.113  0.126E+00  0.126E+00
 16.123  0.127E+00  0.127E+00
 16.133  0.128E+00  0.128E+00
 16.143  0.128E+00  0.128E+00
 16.153  0.127E+00  0.127E+00
 16.163  0.126E+00  0.126E+00
 16.173  0.125E+00  0.125E+00
 16.183  0.123E+00  0.123E+00
 16.193  0.120E+00  0.120E+00
 16.203  0.117E+00  0.117E+00
 16.213  0.114E+00  0.114E+00
 16.223  0.110E+00  0.110E+00
 16.233  0.107E+00  0.107E+00
 16.243  0.103E+00  0.103E+00
 16.253  0.994E-01  0.994E-01
 16.263  0.958E-01  0.958E-01
 16.273  0.923E-01  0.923E-01
 16.283  0.892E-01  0.892E-01
 16.293  0.863E-01  0.863E-01
 16.303  0.838E-01  0.838E-01
 16.313  0.817E-01  0.817E-01
 16.323  0.802E-01  0.802E-01
 16.333  0.792E-01  0.792E-01
 16.343  0.789E-01  0.789E-01
 16.353  0.792E-01  0.792E-01
 16.363  0.802E-01  0.802E-01
 16.373  0.820E-01  0.820E-01
 16.383  0.844E-01  0.844E-01
 16.393  0.876E-01  0.876E-01
 16.403  0.915E-01  0.915E-01
 16.413  0.960E-01  0.960E-01
 16.423  0.101E+00  0.101E+00
 16.433  0.107E+00  0.107E+00
 16.443  0.113E+00  0.113E+00
 16.453  0.119E+00  0.119E+00
 16.463  0.126E+00  0.126E+00
 16.473  0.133E+00  0.133E+00
 16.483  0.139E+00  0.139E+00
 16.493  0.146E+00  0.146E+00
 16.503  0.152E+00  0.152E+00
 16.513  0.157E+00  0.157E+00
 16.523  0.162E+00  0.162E+00
 16.533  0.167E+00  0.167E+00
 16.543  0.170E+00  0.170E+00
 16.553  0.173E+00  0.173E+00
 16.563  0.175E+00  0.175E+00
 16.573  0.176E+00  0.176E+00
 16.583  0.176E+00  0.176E+00
 16.593  0.176E+00  0.176E+00
 16.603  0.175E+00  0.175E+00
 16.613  0.173E+00  0.173E+00
 16.623  0.171E+00  0.171E+00
 16.633  0.168E+00  0.168E+00
 16.643  0.165E+00  0.165E+00
 16.653  0.162E+00  0.162E+00
 16.663  0.159E+00  0.159E+00
 16.673  0.155E+00  0.155E+00
 16.683  0.152E+00  0.152E+00
 16.693  0.148E+00  0.148E+00
 16.703  0.145E+00  0.145E+00
 16.713  0.141E+00  0.141E+00
 16.723  0.138E+00  0.138E+00
 16.733  0.135E+00  0.135E+00
 16.743  0.132E+00  0.132E+00
 16.753  0.129E+00  0.129E+00
 16.763  0.127E+00  0.127E+00
 16.773  0.124E+00  0.124E+00
 16.783  0.122E+00  0.122E+00
 16.793  0.120E+00  0.120E+00
 16.803  0.119E+00  0.119E+00
 16.813  0.118E+00  0.118E+00
 16.823  0.117E+00  0.117E+00
 16.833  0.117E+00  0.117E+00
 16.843  0.117E+00  0.117E+00
 16.853  0.117E+00  0.117E+00
 16.863  0.118E+00  0.118E+00
 16.873  0.119E+00  0.119E+00
 16.883  0.121E+00  0.121E+00
 16.893  0.123E+00  0.123E+00
 16.903  0.125E+00  0.125E+00
 16.913  0.128E+00  0.128E+00
 16.923  0.131E+00  0.131E+00
 16.933  0.134E+00  0.134E+00
 16.943  0.138E+00  0.138E+00
 16.953  0.141E+00  0.141E+00
 16.963  0.145E+00  0.145E+00
 16.973  0.149E+00  0.149E+00
 16.983  0.153E+00  0.153E+00
 16.993  0.158E+00  0.158E+00
 17.003  0.162E+00  0.162E+00
 17.013  0.166E+00  0.166E+00
 17.023  0.171E+00  0.171E+00
 17.033  0.175E+00  0.175E+00
 17.043  0.180E+00  0.180E+00
 17.053  0.184E+00  0.184E+00
 17.063  0.188E+00  0.188E+00
 17.073  0.192E+00  0.192E+00
 17.083  0.196E+00  0.196E+00
 17.093  0.200E+00  0.200E+00
 17.103  0.204E+00  0.204E+00
 17.113  0.207E+00  0.207E+00
 17.123  0.209E+00  0.209E+00
 17.133  0.211E+00  0.211E+00
 17.143  0.212E+00  0.212E+00
 17.153  0.213E+00  0.213E+00
 17.163  0.213E+00  0.213E+00
 17.173  0.212E+00  0.212E+00
 17.183  0.210E+00  0.210E+00
 17.193  0.208E+00  0.208E+00
 17.203  0.204E+00  0.204E+00
 17.213  0.200E+00  0.200E+00
 17.223  0.196E+00  0.196E+00
 17.233  0.191E+00  0.191E+00
 17.243  0.185E+00  0.185E+00
 17.253  0.180E+00  0.180E+00
 17.263  0.175E+00  0.175E+00
 17.273  0.169E+00  0.169E+00
 17.283  0.165E+00  0.165E+00
 17.293  0.160E+00  0.160E+00
 17.303  0.157E+00  0.157E+00
 17.313  0.154E+00  0.154E+00
 17.323  0.152E+00  0.152E+00
 17.333  0.150E+00  0.150E+00
 17.343  0.150E+00  0.150E+00
 17.353  0.150E+00  0.150E+00
 17.363  0.151E+00  0.151E+00
 17.373  0.153E+00  0.153E+00
 17.383  0.155E+00  0.155E+00
 17.393  0.158E+00  0.158E+00
 17.403  0.161E+00  0.161E+00
 17.413  0.164E+00  0.164E+00
 17.423  0.167E+00  0.167E+00
 17.433  0.170E+00  0.170E+00
 17.443  0.173E+00  0.173E+00
 17.453  0.175E+00  0.175E+00
 17.463  0.178E+00  0.178E+00
 17.473  0.180E+00  0.180E+00
 17.483  0.181E+00  0.181E+00
 17.493  0.183E+00  0.183E+00
 17.503  0.184E+00  0.184E+00
 17.513  0.185E+00  0.185E+00
 17.523  0.185E+00  0.185E+00
 17.533  0.186E+00  0.186E+00
 17.543  0.187E+00  0.187E+00
 17.553  0.187E+00  0.187E+00
 17.563  0.188E+00  0.188E+00
 17.573  0.189E+00  0.189E+00
 17.583  0.190E+00  0.190E+00
 17.593  0.191E+00  0.191E+00
 17.603  0.193E+00  0.193E+00
 17.613  0.195E+00  0.195E+00
 17.623  0.197E+00  0.197E+00
 17.633  0.199E+00  0.199E+00
 17.643  0.202E+00  0.202E+00
 17.653  0.205E+00  0.205E+00
 17.663  0.208E+00  0.208E+00
 17.673  0.211E+00  0.211E+00
 17.683  0.214E+00  0.214E+00
 17.693  0.217E+00  0.217E+00
 17.703  0.220E+00  0.220E+00
 17.713  0.223E+00  0.223E+00
 17.723  0.226E+00  0.226E+00
 17.733  0.228E+00  0.228E+00
 17.743  0.230E+00  0.230E+00
 17.753  0.232E+00  0.232E+00
 17.763  0.234E+00  0.234E+00
 17.773  0.235E+00  0.235E+00
 17.783  0.236E+00  0.236E+00
 17.793  0.237E+00  0.237E+00
 17.803  0.237E+00  0.237E+00
 17.813  0.237E+00  0.237E+00
 17.823  0.237E+00  0.237E+00
 17.833  0.237E+00  0.237E+00
 17.843  0.236E+00  0.236E+00
 17.853  0.236E+00  0.236E+00
 17.863  0.235E+00  0.235E+00
 17.873  0.235E+00  0.235E+00
 17.883  0.234E+00  0.234E+00
 17.893  0.234E+00  0.234E+00
 17.903  0.233E+00  0.233E+00
 17.913  0.233E+00  0.233E+00
 17.923  0.234E+00  0.234E+00
 17.933  0.234E+00  0.234E+00
 17.943  0.235E+00  0.235E+00
 17.953  0.235E+00  0.235E+00
 17.963  0.236E+00  0.236E+00
 17.973  0.237E+00  0.237E+00
 17.983  0.238E+00  0.238E+00
 17.993  0.239E+00  0.239E+00
 18.003  0.239E+00  0.239E+00
 18.013  0.240E+00  0.240E+00
 18.023  0.240E+00  0.240E+00
 18.033  0.240E+00  0.240E+00
 18.043  0.240E+00  0.240E+00
 18.053  0.239E+00  0.239E+00
 18.063  0.238E+00  0.238E+00
 18.073  0.236E+00  0.236E+00
 18.083  0.234E+00  0.234E+00
 18.093  0.232E+00  0.232E+00
 18.103  0.230E+00  0.230E+00
 18.113  0.228E+00  0.228E+00
 18.123  0.226E+00  0.226E+00
 18.133  0.225E+00  0.225E+00
 18.143  0.223E+00  0.223E+00
 18.153  0.222E+00  0.222E+00
 18.163  0.222E+00  0.222E+00
 18.173  0.222E+00  0.222E+00
 18.183  0.223E+00  0.223E+00
 18.193  0.224E+00  0.224E+00
 18.203  0.226E+00  0.226E+00
 18.213  0.229E+00  0.229E+00
 18.223  0.232E+00  0.232E+00
 18.233  0.235E+00  0.235E+00
 18.243  0.239E+00  0.239E+00
 18.253  0.243E+00  0.243E+00
 18.263  0.246E+00  0.246E+00
 18.273  0.250E+00  0.250E+00
 18.283  0.254E+00  0.254E+00
 18.293  0.257E+00  0.257E+00
 18.303  0.260E+00  0.260E+00
 18.313  0.262E+00  0.262E+00
 18.323  0.264E+00  0.264E+00
 18.333  0.265E+00  0.265E+00
 18.343  0.265E+00  0.265E+00
 18.353  0.265E+00  0.265E+00
 18.363  0.265E+00  0.265E+00
 18.373  0.264E+00  0.264E+00
 18.383  0.263E+00  0.263E+00
 18.393  0.262E+00  0.262E+00
 18.403  0.260E+00  0.260E+00
 18.413  0.259E+00  0.259E+00
 18.423  0.257E+00  0.257E+00
 18.433  0.256E+00  0.256E+00
 18.443  0.256E+00  0.256E+00
 18.453  0.256E+00  0.256E+00
 18.463  0.257E+00  0.257E+00
 18.473  0.258E+00  0.258E+00
 18.483  0.260E+00  0.260E+00
 18.493  0.263E+00  0.263E+00
 18.503  0.267E+00  0.267E+00
 18.513  0.271E+00  0.271E+00
 18.523  0.276E+00  0.276E+00
 18.533  0.282E+00  0.282E+00
 18.543  0.288E+00  0.288E+00
 18.553  0.294E+00  0.294E+00
 18.563  0.301E+00  0.301E+00
 18.573  0.307E+00  0.307E+00
 18.583  0.314E+00  0.314E+00
 18.593  0.321E+00  0.321E+00
 18.603  0.327E+00  0.327E+00
 18.613  0.333E+00  0.333E+00
 18.623  0.339E+00  0.339E+00
 18.633  0.344E+00  0.344E+00
 18.643  0.348E+00  0.348E+00
 18.653  0.352E+00  0.352E+00
 18.663  0.355E+00  0.355E+00
 18.673  0.358E+00  0.358E+00
 18.683  0.360E+00  0.360E+00
 18.693  0.361E+00  0.361E+00
 18.703  0.361E+00  0.361E+00
 18.713  0.361E+00  0.361E+00
 18.723  0.360E+00  0.360E+00
 18.733  0.358E+00  0.358E+00
 18.743  0.355E+00  0.355E+00
 18.753  0.352E+00  0.352E+00
 18.763  0.348E+00  0.348E+00
 18.773  0.343E+00  0.343E+00
 18.783  0.337E+00  0.337E+00
 18.793  0.330E+00  0.330E+00
 18.803  0.322E+00  0.322E+00
 18.813  0.313E+00  0.313E+00
 18.823  0.304E+00  0.304E+00
 18.833  0.294E+00  0.294E+00
 18.843  0.283E+00  0.283E+00
 18.853  0.272E+00  0.272E+00
 18.863  0.260E+00  0.260E+00
 18.873  0.248E+00  0.248E+00
 18.883  0.236E+00  0.236E+00
 18.893  0.224E+00  0.224E+00
 18.903  0.213E+00  0.213E+00
 18.913  0.203E+00  0.203E+00
 18.923  0.193E+00  0.193E+00
 18.933  0.184E+00  0.184E+00
 18.943  0.175E+00  0.175E+00
 18.953  0.168E+00  0.168E+00
 18.963  0.163E+00  0.163E+00
 18.973  0.158E+00  0.158E+00
 18.983  0.154E+00  0.154E+00
 18.993  0.151E+00  0.151E+00
 19.003  0.150E+00  0.150E+00
 19.013  0.149E+00  0.149E+00
 19.023  0.149E+00  0.149E+00
 19.033  0.149E+00  0.149E+00
 19.043  0.150E+00  0.150E+00
 19.053  0.151E+00  0.151E+00
 19.063  0.152E+00  0.152E+00
 19.073  0.154E+00  0.154E+00
 19.083  0.155E+00  0.155E+00
 19.093  0.156E+00  0.156E+00
 19.103  0.157E+00  0.157E+00
 19.113  0.158E+00  0.158E+00
 19.123  0.158E+00  0.158E+00
 19.133  0.158E+00  0.158E+00
 19.143  0.158E+00  0.158E+00
 19.153  0.157E+00  0.157E+00
 19.163  0.156E+00  0.156E+00
 19.173  0.155E+00  0.155E+00
 19.183  0.153E+00  0.153E+00
 19.193  0.152E+00  0.152E+00
 19.203  0.149E+00  0.149E+00
 19.213  0.147E+00  0.147E+00
 19.223  0.145E+00  0.145E+00
 19.233  0.142E+00  0.142E+00
 19.243  0.139E+00  0.139E+00
 19.253  0.137E+00  0.137E+00
 19.263  0.134E+00  0.134E+00
 19.273  0.131E+00  0.131E+00
 19.283  0.127E+00  0.127E+00
 19.293  0.124E+00  0.124E+00
 19.303  0.121E+00  0.121E+00
 19.313  0.117E+00  0.117E+00
 19.323  0.114E+00  0.114E+00
 19.333  0.110E+00  0.110E+00
 19.343  0.107E+00  0.107E+00
 19.353  0.103E+00  0.103E+00
 19.363  0.992E-01  0.992E-01
 19.373  0.955E-01  0.955E-01
 19.383  0.918E-01  0.918E-01
 19.393  0.883E-01  0.883E-01
 19.403  0.849E-01  0.849E-01
 19.413  0.816E-01  0.816E-01
 19.423  0.787E-01  0.787E-01
 19.433  0.760E-01  0.760E-01
 19.443  0.738E-01  0.738E-01
 19.453  0.720E-01  0.720E-01
 19.463  0.706E-01  0.706E-01
 19.473  0.699E-01  0.699E-01
 19.483  0.697E-01  0.697E-01
 19.493  0.701E-01  0.701E-01
 19.503  0.712E-01  0.712E-01
 19.513  0.729E-01  0.729E-01
 19.523  0.752E-01  0.752E-01
 19.533  0.782E-01  0.782E-01
 19.543  0.817E-01  0.817E-01
 19.553  0.858E-01  0.858E-01
 19.563  0.903E-01  0.903E-01
 19.573  0.951E-01  0.951E-01
 19.583  0.100E+00  0.100E+00
 19.593  0.105E+00  0.105E+00
 19.603  0.110E+00  0.110E+00
 19.613  0.116E+00  0.116E+00
 19.623  0.120E+00  0.120E+00
 19.633  0.125E+00  0.125E+00
 19.643  0.129E+00  0.129E+00
 19.653  0.133E+00  0.133E+00
 19.663  0.136E+00  0.136E+00
 19.673  0.139E+00  0.139E+00
 19.683  0.140E+00  0.140E+00
 19.693  0.142E+00  0.142E+00
 19.703  0.143E+00  0.143E+00
 19.713  0.143E+00  0.143E+00
 19.723  0.143E+00  0.143E+00
 19.733  0.143E+00  0.143E+00
 19.743  0.142E+00  0.142E+00
 19.753  0.141E+00  0.141E+00
 19.763  0.140E+00  0.140E+00
 19.773  0.139E+00  0.139E+00
 19.783  0.139E+00  0.139E+00
 19.793  0.138E+00  0.138E+00
 19.803  0.138E+00  0.138E+00
 19.813  0.138E+00  0.138E+00
 19.823  0.138E+00  0.138E+00
 19.833  0.139E+00  0.139E+00
 19.843  0.140E+00  0.140E+00
 19.853  0.142E+00  0.142E+00
 19.863  0.144E+00  0.144E+00
 19.873  0.147E+00  0.147E+00
 19.883  0.150E+00  0.150E+00
 19.893  0.153E+00  0.153E+00
 19.903  0.157E+00  0.157E+00
 19.913  0.162E+00  0.162E+00
 19.923  0.166E+00  0.166E+00
 19.933  0.171E+00  0.171E+00
 19.943  0.176E+00  0.176E+00
 19.953  0.182E+00  0.182E+00
 19.963  0.187E+00  0.187E+00
 19.973  0.193E+00  0.193E+00
 19.983  0.199E+00  0.199E+00
 19.993  0.204E+00  0.204E+00
 20.003  0.210E+00  0.210E+00
 20.013  0.216E+00  0.216E+00
 20.023  0.222E+00  0.222E+00
 20.033  0.228E+00  0.228E+00
 20.043  0.234E+00  0.234E+00
 20.053  0.240E+00  0.240E+00
 20.063  0.245E+00  0.245E+00
 20.073  0.251E+00  0.251E+00
 20.083  0.257E+00  0.257E+00
 20.093  0.262E+00  0.262E+00
 20.103  0.267E+00  0.267E+00
 20.113  0.272E+00  0.272E+00
 20.123  0.277E+00  0.277E+00
 20.133  0.281E+00  0.281E+00
 20.143  0.285E+00  0.285E+00
 20.153  0.289E+00  0.289E+00
 20.163  0.291E+00  0.291E+00
 20.173  0.294E+00  0.294E+00
 20.183  0.295E+00  0.295E+00
 20.193  0.296E+00  0.296E+00
 20.203  0.296E+00  0.296E+00
 20.213  0.296E+00  0.296E+00
 20.223  0.294E+00  0.294E+00
 20.233  0.293E+00  0.293E+00
 20.243  0.290E+00  0.290E+00
 20.253  0.288E+00  0.288E+00
 20.263  0.285E+00  0.285E+00
 20.273  0.281E+00  0.281E+00
 20.283  0.278E+00  0.278E+00
 20.293  0.274E+00  0.274E+00
 20.303  0.270E+00  0.270E+00
 20.313  0.267E+00  0.267E+00
 20.323  0.264E+00  0.264E+00
 20.333  0.261E+00  0.261E+00
 20.343  0.259E+00  0.259E+00
 20.353  0.257E+00  0.257E+00
 20.363  0.255E+00  0.255E+00
 20.373  0.253E+00  0.253E+00
 20.383  0.252E+00  0.252E+00
 20.393  0.251E+00  0.251E+00
 20.403  0.251E+00  0.251E+00
 20.413  0.250E+00  0.250E+00
 20.423  0.249E+00  0.249E+00
 20.433  0.249E+00  0.249E+00
 20.443  0.248E+00  0.248E+00
 20.453  0.247E+00  0.247E+00
 20.463  0.246E+00  0.246E+00
 20.473  0.244E+00  0.244E+00
 20.483  0.242E+00  0.242E+00
 20.493  0.240E+00  0.240E+00
 20.503  0.238E+00  0.238E+00
 20.513  0.235E+00  0.235E+00
 20.523  0.232E+00  0.232E+00
 20.533  0.230E+00  0.230E+00
 20.543  0.227E+00  0.227E+00
 20.553  0.224E+00  0.224E+00
 20.563  0.222E+00  0.222E+00
 20.573  0.220E+00  0.220E+00
 20.583  0.218E+00  0.218E+00
 20.593  0.216E+00  0.216E+00
 20.603  0.215E+00  0.215E+00
 20.613  0.214E+00  0.214E+00
 20.623  0.214E+00  0.214E+00
 20.633  0.214E+00  0.214E+00
 20.643  0.213E+00  0.213E+00
 20.653  0.213E+00  0.213E+00
 20.663  0.213E+00  0.213E+00
 20.673  0.213E+00  0.213E+00
 20.683  0.213E+00  0.213E+00
 20.693  0.212E+00  0.212E+00
 20.703  0.212E+00  0.212E+00
 20.713  0.210E+00  0.210E+00
 20.723  0.209E+00  0.209E+00
 20.733  0.208E+00  0.208E+00
 20.743  0.206E+00  0.206E+00
 20.753  0.204E+00  0.204E+00
 20.763  0.202E+00  0.202E+00
 20.773  0.200E+00  0.200E+00
 20.783  0.197E+00  0.197E+00
 20.793  0.195E+00  0.195E+00
 20.803  0.193E+00  0.193E+00
 20.813  0.191E+00  0.191E+00
 20.823  0.189E+00  0.189E+00
 20.833  0.188E+00  0.188E+00
 20.843  0.186E+00  0.186E+00
 20.853  0.185E+00  0.185E+00
 20.863  0.184E+00  0.184E+00
 20.873  0.183E+00  0.183E+00
 20.883  0.182E+00  0.182E+00
 20.893  0.181E+00  0.181E+00
 20.903  0.180E+00  0.180E+00
 20.913  0.178E+00  0.178E+00
 20.923  0.177E+00  0.177E+00
 20.933  0.175E+00  0.175E+00
 20.943  0.174E+00  0.174E+00
 20.953  0.172E+00  0.172E+00
 20.963  0.169E+00  0.169E+00
 20.973  0.167E+00  0.167E+00
 20.983  0.165E+00  0.165E+00
 20.993  0.163E+00  0.163E+00
 21.003  0.160E+00  0.160E+00
 21.013  0.158E+00  0.158E+00
 21.023  0.156E+00  0.156E+00
 21.033  0.155E+00  0.155E+00
 21.043  0.153E+00  0.153E+00
 21.053  0.152E+00  0.152E+00
 21.063  0.152E+00  0.152E+00
 21.073  0.152E+00  0.152E+00
 21.083  0.152E+00  0.152E+00
 21.093  0.152E+00  0.152E+00
 21.103  0.153E+00  0.153E+00
 21.113  0.154E+00  0.154E+00
 21.123  0.155E+00  0.155E+00
 21.133  0.156E+00  0.156E+00
 21.143  0.158E+00  0.158E+00
 21.153  0.160E+00  0.160E+00
 21.163  0.161E+00  0.161E+00
 21.173  0.163E+00  0.163E+00
 21.183  0.164E+00  0.164E+00
 21.193  0.165E+00  0.165E+00
 21.203  0.166E+00  0.166E+00
 21.213  0.167E+00  0.167E+00
 21.223  0.168E+00  0.168E+00
 21.233  0.168E+00  0.168E+00
 21.243  0.168E+00  0.168E+00
 21.253  0.168E+00  0.168E+00
 21.263  0.168E+00  0.168E+00
 21.273  0.168E+00  0.168E+00
 21.283  0.167E+00  0.167E+00
 21.293  0.166E+00  0.166E+00
 21.303  0.165E+00  0.165E+00
 21.313  0.164E+00  0.164E+00
 21.323  0.163E+00  0.163E+00
 21.333  0.162E+00  0.162E+00
 21.343  0.160E+00  0.160E+00
 21.353  0.159E+00  0.159E+00
 21.363  0.158E+00  0.158E+00
 21.373  0.156E+00  0.156E+00
 21.383  0.155E+00  0.155E+00
 21.393  0.153E+00  0.153E+00
 21.403  0.151E+00  0.151E+00
 21.413  0.149E+00  0.149E+00
 21.423  0.147E+00  0.147E+00
 21.433  0.145E+00  0.145E+00
 21.443  0.143E+00  0.143E+00
 21.453  0.140E+00  0.140E+00
 21.463  0.138E+00  0.138E+00
 21.473  0.135E+00  0.135E+00
 21.483  0.132E+00  0.132E+00
 21.493  0.130E+00  0.130E+00
 21.503  0.127E+00  0.127E+00
 21.513  0.124E+00  0.124E+00
 21.523  0.122E+00  0.122E+00
 21.533  0.120E+00  0.120E+00
 21.543  0.119E+00  0.119E+00
 21.553  0.117E+00  0.117E+00
 21.563  0.117E+00  0.117E+00
 21.573  0.116E+00  0.116E+00
 21.583  0.117E+00  0.117E+00
 21.593  0.118E+00  0.118E+00
 21.603  0.119E+00  0.119E+00
 21.613  0.121E+00  0.121E+00
 21.623  0.124E+00  0.124E+00
 21.633  0.127E+00  0.127E+00
 21.643  0.130E+00  0.130E+00
 21.653  0.134E+00  0.134E+00
 21.663  0.137E+00  0.137E+00
 21.673  0.141E+00  0.141E+00
 21.683  0.145E+00  0.145E+00
 21.693  0.148E+00  0.148E+00
 21.703  0.151E+00  0.151E+00
 21.713  0.154E+00  0.154E+00
 21.723  0.157E+00  0.157E+00
 21.733  0.159E+00  0.159E+00
 21.743  0.160E+00  0.160E+00
 21.753  0.161E+00  0.161E+00
 21.763  0.161E+00  0.161E+00
 21.773  0.161E+00  0.161E+00
 21.783  0.161E+00  0.161E+00
 21.793  0.159E+00  0.159E+00
 21.803  0.158E+00  0.158E+00
 21.813  0.155E+00  0.155E+00
 21.823  0.153E+00  0.153E+00
 21.833  0.150E+00  0.150E+00
 21.843  0.147E+00  0.147E+00
 21.853  0.144E+00  0.144E+00
 21.863  0.141E+00  0.141E+00
 21.873  0.138E+00  0.138E+00
 21.883  0.135E+00  0.135E+00
 21.893  0.132E+00  0.132E+00
 21.903  0.129E+00  0.129E+00
 21.913  0.126E+00  0.126E+00
 21.923  0.124E+00  0.124E+00
 21.933  0.121E+00  0.121E+00
 21.943  0.118E+00  0.118E+00
 21.953  0.116E+00  0.116E+00
 21.963  0.114E+00  0.114E+00
 21.973  0.112E+00  0.112E+00
 21.983  0.110E+00  0.110E+00
 21.993  0.108E+00  0.108E+00
 22.003  0.107E+00  0.107E+00
 22.013  0.106E+00  0.106E+00
 22.023  0.105E+00  0.105E+00
 22.033  0.104E+00  0.104E+00
 22.043  0.104E+00  0.104E+00
 22.053  0.104E+00  0.104E+00
 22.063  0.105E+00  0.105E+00
 22.073  0.106E+00  0.106E+00
 22.083  0.107E+00  0.107E+00
 22.093  0.109E+00  0.109E+00
 22.103  0.111E+00  0.111E+00
 22.113  0.114E+00  0.114E+00
 22.123  0.117E+00  0.117E+00
 22.133  0.120E+00  0.120E+00
 22.143  0.124E+00  0.124E+00
 22.153  0.128E+00  0.128E+00
 22.163  0.132E+00  0.132E+00
 22.173  0.136E+00  0.136E+00
 22.183  0.140E+00  0.140E+00
 22.193  0.144E+00  0.144E+00
 22.203  0.147E+00  0.147E+00
 22.213  0.150E+00  0.150E+00
 22.223  0.153E+00  0.153E+00
 22.233  0.156E+00  0.156E+00
 22.243  0.157E+00  0.157E+00
 22.253  0.159E+00  0.159E+00
 22.263  0.159E+00  0.159E+00
 22.273  0.159E+00  0.159E+00
 22.283  0.158E+00  0.158E+00
 22.293  0.157E+00  0.157E+00
 22.303  0.155E+00  0.155E+00
 22.313  0.153E+00  0.153E+00
 22.323  0.150E+00  0.150E+00
 22.333  0.147E+00  0.147E+00
 22.343  0.143E+00  0.143E+00
 22.353  0.140E+00  0.140E+00
 22.363  0.136E+00  0.136E+00
 22.373  0.132E+00  0.132E+00
 22.383  0.129E+00  0.129E+00
 22.393  0.125E+00  0.125E+00
 22.403  0.122E+00  0.122E+00
 22.413  0.119E+00  0.119E+00
 22.423  0.117E+00  0.117E+00
 22.433  0.114E+00  0.114E+00
 22.443  0.112E+00  0.112E+00
 22.453  0.111E+00  0.111E+00
 22.463  0.110E+00  0.110E+00
 22.473  0.109E+00  0.109E+00
 22.483  0.108E+00  0.108E+00
 22.493  0.108E+00  0.108E+00
 22.503  0.108E+00  0.108E+00
 22.513  0.108E+00  0.108E+00
 22.523  0.108E+00  0.108E+00
 22.533  0.108E+00  0.108E+00
 22.543  0.108E+00  0.108E+00
 22.553  0.109E+00  0.109E+00
 22.563  0.109E+00  0.109E+00
 22.573  0.110E+00  0.110E+00
 22.583  0.110E+00  0.110E+00
 22.593  0.111E+00  0.111E+00
 22.603  0.111E+00  0.111E+00
 22.613  0.112E+00  0.112E+00
 22.623  0.113E+00  0.113E+00
 22.633  0.114E+00  0.114E+00
 22.643  0.115E+00  0.115E+00
 22.653  0.116E+00  0.116E+00
 22.663  0.118E+00  0.118E+00
 22.673  0.119E+00  0.119E+00
 22.683  0.121E+00  0.121E+00
 22.693  0.123E+00  0.123E+00
 22.703  0.125E+00  0.125E+00
 22.713  0.127E+00  0.127E+00
 22.723  0.129E+00  0.129E+00
 22.733  0.131E+00  0.131E+00
 22.743  0.134E+00  0.134E+00
 22.753  0.136E+00  0.136E+00
 22.763  0.138E+00  0.138E+00
 22.773  0.140E+00  0.140E+00
 22.783  0.142E+00  0.142E+00
 22.793  0.144E+00  0.144E+00
 22.803  0.146E+00  0.146E+00
 22.813  0.147E+00  0.147E+00
 22.823  0.149E+00  0.149E+00
 22.833  0.150E+00  0.150E+00
 22.843  0.150E+00  0.150E+00
 22.853  0.151E+00  0.151E+00
 22.863  0.151E+00  0.151E+00
 22.873  0.151E+00  0.151E+00
 22.883  0.150E+00  0.150E+00
 22.893  0.150E+00  0.150E+00
 22.903  0.149E+00  0.149E+00
 22.913  0.148E+00  0.148E+00
 22.923  0.147E+00  0.147E+00
 22.933  0.145E+00  0.145E+00
 22.943  0.144E+00  0.144E+00
 22.953  0.142E+00  0.142E+00
 22.963  0.140E+00  0.140E+00
 22.973  0.138E+00  0.138E+00
 22.983  0.136E+00  0.136E+00
 22.993  0.134E+00  0.134E+00
 23.003  0.132E+00  0.132E+00
 23.013  0.130E+00  0.130E+00
 23.023  0.127E+00  0.127E+00
 23.033  0.125E+00  0.125E+00
 23.043  0.123E+00  0.123E+00
 23.053  0.121E+00  0.121E+00
 23.063  0.119E+00  0.119E+00
 23.073  0.118E+00  0.118E+00
 23.083  0.116E+00  0.116E+00
 23.093  0.115E+00  0.115E+00
 23.103  0.114E+00  0.114E+00
 23.113  0.113E+00  0.113E+00
 23.123  0.112E+00  0.112E+00
 23.133  0.112E+00  0.112E+00
 23.143  0.112E+00  0.112E+00
 23.153  0.112E+00  0.112E+00
 23.163  0.112E+00  0.112E+00
 23.173  0.113E+00  0.113E+00
 23.183  0.115E+00  0.115E+00
 23.193  0.116E+00  0.116E+00
 23.203  0.118E+00  0.118E+00
 23.213  0.120E+00  0.120E+00
 23.223  0.122E+00  0.122E+00
 23.233  0.125E+00  0.125E+00
 23.243  0.128E+00  0.128E+00
 23.253  0.131E+00  0.131E+00
 23.263  0.134E+00  0.134E+00
 23.273  0.137E+00  0.137E+00
 23.283  0.140E+00  0.140E+00
 23.293  0.143E+00  0.143E+00
 23.303  0.147E+00  0.147E+00
 23.313  0.150E+00  0.150E+00
 23.323  0.153E+00  0.153E+00
 23.333  0.155E+00  0.155E+00
 23.343  0.158E+00  0.158E+00
 23.353  0.160E+00  0.160E+00
 23.363  0.162E+00  0.162E+00
 23.373  0.163E+00  0.163E+00
 23.383  0.164E+00  0.164E+00
 23.393  0.164E+00  0.164E+00
 23.403  0.164E+00  0.164E+00
 23.413  0.164E+00  0.164E+00
 23.423  0.163E+00  0.163E+00
 23.433  0.162E+00  0.162E+00
 23.443  0.160E+00  0.160E+00
 23.453  0.158E+00  0.158E+00
 23.463  0.156E+00  0.156E+00
 23.473  0.153E+00  0.153E+00
 23.483  0.150E+00  0.150E+00
 23.493  0.148E+00  0.148E+00
 23.503  0.145E+00  0.145E+00
 23.513  0.142E+00  0.142E+00
 23.523  0.139E+00  0.139E+00
 23.533  0.137E+00  0.137E+00
 23.543  0.135E+00  0.135E+00
 23.553  0.132E+00  0.132E+00
 23.563  0.131E+00  0.131E+00
 23.573  0.129E+00  0.129E+00
 23.583  0.128E+00  0.128E+00
 23.593  0.127E+00  0.127E+00
 23.603  0.126E+00  0.126E+00
 23.613  0.125E+00  0.125E+00
 23.623  0.125E+00  0.125E+00
 23.633  0.125E+00  0.125E+00
 23.643  0.125E+00  0.125E+00
 23.653  0.124E+00  0.124E+00
 23.663  0.124E+00  0.124E+00
 23.673  0.124E+00  0.124E+00
 23.683  0.124E+00  0.124E+00
 23.693  0.123E+00  0.123E+00
 23.703  0.123E+00  0.123E+00
 23.713  0.122E+00  0.122E+00
 23.723  0.122E+00  0.122E+00
 23.733  0.121E+00  0.121E+00
 23.743  0.119E+00  0.119E+00
 23.753  0.118E+00  0.118E+00
 23.763  0.116E+00  0.116E+00
 23.773  0.115E+00  0.115E+00
 23.783  0.113E+00  0.113E+00
 23.793  0.110E+00  0.110E+00
 23.803  0.108E+00  0.108E+00
 23.813  0.106E+00  0.106E+00
 23.823  0.103E+00  0.103E+00
 23.833  0.999E-01  0.999E-01
 23.843  0.969E-01  0.969E-01
 23.853  0.937E-01  0.937E-01
 23.863  0.903E-01  0.903E-01
 23.873  0.868E-01  0.868E-01
 23.883  0.832E-01  0.832E-01
 23.893  0.795E-01  0.795E-01
 23.903  0.756E-01  0.756E-01
 23.913  0.718E-01  0.718E-01
 23.923  0.679E-01  0.679E-01
 23.933  0.640E-01  0.640E-01
 23.943  0.602E-01  0.602E-01
 23.953  0.564E-01  0.564E-01
 23.963  0.527E-01  0.527E-01
 23.973  0.491E-01  0.491E-01
 23.983  0.456E-01  0.456E-01
 23.993  0.423E-01  0.423E-01
 24.003  0.392E-01  0.392E-01
 24.013  0.363E-01  0.363E-01
 24.023  0.336E-01  0.336E-01
 24.033  0.311E-01  0.311E-01
 24.043  0.288E-01  0.288E-01
 24.053  0.268E-01  0.268E-01
 24.063  0.249E-01  0.249E-01
 24.073  0.233E-01  0.233E-01
 24.083  0.218E-01  0.218E-01
 24.093  0.206E-01  0.206E-01
 24.103  0.195E-01  0.195E-01
 24.113  0.187E-01  0.187E-01
 24.123  0.179E-01  0.179E-01
 24.133  0.173E-01  0.173E-01
 24.143  0.169E-01  0.169E-01
 24.153  0.166E-01  0.166E-01
 24.163  0.163E-01  0.163E-01
 24.173  0.162E-01  0.162E-01
 24.183  0.161E-01  0.161E-01
 24.193  0.161E-01  0.161E-01
 24.203  0.162E-01  0.162E-01
 24.213  0.163E-01  0.163E-01
 24.223  0.164E-01  0.164E-01
 24.233  0.165E-01  0.165E-01
 24.243  0.166E-01  0.166E-01
 24.253  0.167E-01  0.167E-01
 24.263  0.167E-01  0.167E-01
 24.273  0.168E-01  0.168E-01
 24.283  0.168E-01  0.168E-01
 24.293  0.168E-01  0.168E-01
 24.303  0.167E-01  0.167E-01
 24.313  0.166E-01  0.166E-01
 24.323  0.165E-01  0.165E-01
 24.333  0.164E-01  0.164E-01
 24.343  0.162E-01  0.162E-01
 24.353  0.160E-01  0.160E-01
 24.363  0.158E-01  0.158E-01
 24.373  0.156E-01  0.156E-01
 24.383  0.153E-01  0.153E-01
 24.393  0.151E-01  0.151E-01
 24.403  0.148E-01  0.148E-01
 24.413  0.145E-01  0.145E-01
 24.423  0.143E-01  0.143E-01
 24.433  0.140E-01  0.140E-01
 24.443  0.138E-01  0.138E-01
 24.453  0.136E-01  0.136E-01
 24.463  0.134E-01  0.134E-01
 24.473  0.133E-01  0.133E-01
 24.483  0.131E-01  0.131E-01
 24.493  0.130E-01  0.130E-01
 24.503  0.129E-01  0.129E-01
 24.513  0.129E-01  0.129E-01
 24.523  0.129E-01  0.129E-01
 24.533  0.129E-01  0.129E-01
 24.543  0.129E-01  0.129E-01
 24.553  0.130E-01  0.130E-01
 24.563  0.130E-01  0.130E-01
 24.573  0.131E-01  0.131E-01
 24.583  0.131E-01  0.131E-01
 24.593  0.132E-01  0.132E-01
 24.603  0.132E-01  0.132E-01
 24.613  0.132E-01  0.132E-01
 24.623  0.132E-01  0.132E-01
 24.633  0.131E-01  0.131E-01
 24.643  0.130E-01  0.130E-01
 24.653  0.129E-01  0.129E-01
 24.663  0.128E-01  0.128E-01
 24.673  0.126E-01  0.126E-01
 24.683  0.125E-01  0.125E-01
 24.693  0.123E-01  0.123E-01
 24.703  0.121E-01  0.121E-01
 24.713  0.119E-01  0.119E-01
 24.723  0.117E-01  0.117E-01
 24.733  0.115E-01  0.115E-01
 24.743  0.113E-01  0.113E-01
 24.753  0.111E-01  0.111E-01
 24.763  0.110E-01  0.110E-01
 24.773  0.108E-01  0.108E-01
 24.783  0.107E-01  0.107E-01
 24.793  0.106E-01  0.106E-01
 24.803  0.105E-01  0.105E-01
 24.813  0.103E-01  0.103E-01
 24.823  0.102E-01  0.102E-01
 24.833  0.101E-01  0.101E-01
 24.843  0.995E-02  0.995E-02
 24.853  0.982E-02  0.982E-02
 24.863  0.968E-02  0.968E-02
 24.873  0.953E-02  0.953E-02
 24.883  0.937E-02  0.937E-02
 24.893  0.922E-02  0.922E-02
 24.903  0.906E-02  0.906E-02
 24.913  0.891E-02  0.891E-02
 24.923  0.876E-02  0.876E-02
 24.933  0.862E-02  0.862E-02
 24.943  0.849E-02  0.849E-02
 24.953  0.837E-02  0.837E-02
 24.963  0.827E-02  0.827E-02
 24.973  0.819E-02  0.819E-02
 24.983  0.812E-02  0.812E-02
 24.993  0.806E-02  0.806E-02
 25.003  0.801E-02  0.801E-02
 25.013  0.798E-02  0.798E-02
 25.023  0.795E-02  0.795E-02
 25.033  0.793E-02  0.793E-02
 25.043  0.791E-02  0.791E-02
 25.053  0.789E-02  0.789E-02
 25.063  0.787E-02  0.787E-02
 25.073  0.784E-02  0.784E-02
 25.083  0.782E-02  0.782E-02
 25.093  0.779E-02  0.779E-02
 25.103  0.775E-02  0.775E-02
 25.113  0.772E-02  0.772E-02
 25.123  0.768E-02  0.768E-02
 25.133  0.764E-02  0.764E-02
 25.143  0.761E-02  0.761E-02
 25.153  0.758E-02  0.758E-02
 25.163  0.756E-02  0.756E-02
 25.173  0.754E-02  0.754E-02
 25.183  0.752E-02  0.752E-02
 25.193  0.752E-02  0.752E-02
 25.203  0.752E-02  0.752E-02
 25.213  0.752E-02  0.752E-02
 25.223  0.753E-02  0.753E-02
 25.233  0.754E-02  0.754E-02
 25.243  0.755E-02  0.755E-02
 25.253  0.755E-02  0.755E-02
 25.263  0.755E-02  0.755E-02
 25.273  0.755E-02  0.755E-02
 25.283  0.753E-02  0.753E-02
 25.293  0.750E-02  0.750E-02
 25.303  0.746E-02  0.746E-02
 25.313  0.740E-02  0.740E-02
 25.323  0.733E-02  0.733E-02
 25.333  0.724E-02  0.724E-02
 25.343  0.713E-02  0.713E-02
 25.353  0.701E-02  0.701E-02
 25.363  0.688E-02  0.688E-02
 25.373  0.673E-02  0.673E-02
 25.383  0.657E-02  0.657E-02
 25.393  0.640E-02  0.640E-02
 25.403  0.621E-02  0.621E-02
 25.413  0.602E-02  0.602E-02
 25.423  0.582E-02  0.582E-02
 25.433  0.562E-02  0.562E-02
 25.443  0.540E-02  0.540E-02
 25.453  0.518E-02  0.518E-02
 25.463  0.496E-02  0.496E-02
 25.473  0.473E-02  0.473E-02
 25.483  0.451E-02  0.451E-02
 25.493  0.428E-02  0.428E-02
 25.503  0.406E-02  0.406E-02
 25.513  0.384E-02  0.384E-02
 25.523  0.363E-02  0.363E-02
 25.533  0.344E-02  0.344E-02
 25.543  0.326E-02  0.326E-02
 25.553  0.309E-02  0.309E-02
 25.563  0.296E-02  0.296E-02
 25.573  0.284E-02  0.284E-02
 25.583  0.276E-02  0.276E-02
 25.593  0.271E-02  0.271E-02
 25.603  0.269E-02  0.269E-02
 25.613  0.270E-02  0.270E-02
 25.623  0.275E-02  0.275E-02
 25.633  0.283E-02  0.283E-02
 25.643  0.294E-02  0.294E-02
 25.653  0.309E-02  0.309E-02
 25.663  0.326E-02  0.326E-02
 25.673  0.345E-02  0.345E-02
 25.683  0.366E-02  0.366E-02
 25.693  0.389E-02  0.389E-02
 25.703  0.412E-02  0.412E-02
 25.713  0.435E-02  0.435E-02
 25.723  0.457E-02  0.457E-02
 25.733  0.479E-02  0.479E-02
 25.743  0.499E-02  0.499E-02
 25.753  0.517E-02  0.517E-02
 25.763  0.532E-02  0.532E-02
 25.773  0.544E-02  0.544E-02
 25.783  0.552E-02  0.552E-02
 25.793  0.557E-02  0.557E-02
 25.803  0.558E-02  0.558E-02
 25.813  0.555E-02  0.555E-02
 25.823  0.548E-02  0.548E-02
 25.833  0.537E-02  0.537E-02
 25.843  0.523E-02  0.523E-02
 25.853  0.505E-02  0.505E-02
 25.863  0.485E-02  0.485E-02
 25.873  0.462E-02  0.462E-02
 25.883  0.437E-02  0.437E-02
 25.893  0.410E-02  0.410E-02
 25.903  0.383E-02  0.383E-02
 25.913  0.356E-02  0.356E-02
 25.923  0.329E-02  0.329E-02
 25.933  0.303E-02  0.303E-02
 25.943  0.277E-02  0.277E-02
 25.953  0.254E-02  0.254E-02
 25.963  0.232E-02  0.232E-02
 25.973  0.212E-02  0.212E-02
 25.983  0.195E-02  0.195E-02
 25.993  0.180E-02  0.180E-02
 26.003  0.167E-02  0.167E-02
 26.013  0.157E-02  0.157E-02
 26.023  0.149E-02  0.149E-02
 26.033  0.143E-02  0.143E-02
 26.043  0.138E-02  0.138E-02
 26.053  0.136E-02  0.136E-02
 26.063  0.135E-02  0.135E-02
 26.073  0.136E-02  0.136E-02
 26.083  0.137E-02  0.137E-02
 26.093  0.140E-02  0.140E-02
 26.103  0.143E-02  0.143E-02
 26.113  0.147E-02  0.147E-02
 26.123  0.151E-02  0.151E-02
 26.133  0.156E-02  0.156E-02
 26.143  0.161E-02  0.161E-02
 26.153  0.165E-02  0.165E-02
 26.163  0.170E-02  0.170E-02
 26.173  0.175E-02  0.175E-02
 26.183  0.180E-02  0.180E-02
 26.193  0.185E-02  0.185E-02
 26.203  0.190E-02  0.190E-02
 26.213  0.195E-02  0.195E-02
 26.223  0.200E-02  0.200E-02
 26.233  0.204E-02  0.204E-02
 26.243  0.209E-02  0.209E-02
 26.253  0.213E-02  0.213E-02
 26.263  0.217E-02  0.217E-02
 26.273  0.221E-02  0.221E-02
 26.283  0.225E-02  0.225E-02
 26.293  0.228E-02  0.228E-02
 26.303  0.231E-02  0.231E-02
 26.313  0.234E-02  0.234E-02
 26.323  0.235E-02  0.235E-02
 26.333  0.236E-02  0.236E-02
 26.343  0.236E-02  0.236E-02
 26.353  0.235E-02  0.235E-02
 26.363  0.233E-02  0.233E-02
 26.373  0.231E-02  0.231E-02
 26.383  0.226E-02  0.226E-02
 26.393  0.221E-02  0.221E-02
 26.403  0.215E-02  0.215E-02
 26.413  0.208E-02  0.208E-02
 26.423  0.201E-02  0.201E-02
 26.433  0.192E-02  0.192E-02
 26.443  0.184E-02  0.184E-02
 26.453  0.175E-02  0.175E-02
 26.463  0.165E-02  0.165E-02
 26.473  0.156E-02  0.156E-02
 26.483  0.147E-02  0.147E-02
 26.493  0.138E-02  0.138E-02
 26.503  0.130E-02  0.130E-02
 26.513  0.122E-02  0.122E-02
 26.523  0.114E-02  0.114E-02
 26.533  0.107E-02  0.107E-02
 26.543  0.101E-02  0.101E-02
 26.553  0.946E-03  0.946E-03
 26.563  0.890E-03  0.890E-03
 26.573  0.839E-03  0.839E-03
 26.583  0.792E-03  0.792E-03
 26.593  0.750E-03  0.750E-03
 26.603  0.712E-03  0.712E-03
 26.613  0.678E-03  0.678E-03
 26.623  0.649E-03  0.649E-03
 26.633  0.624E-03  0.624E-03
 26.643  0.603E-03  0.603E-03
 26.653  0.588E-03  0.588E-03
 26.663  0.578E-03  0.578E-03
 26.673  0.572E-03  0.572E-03
 26.683  0.572E-03  0.572E-03
 26.693  0.577E-03  0.577E-03
 26.703  0.586E-03  0.586E-03
 26.713  0.601E-03  0.601E-03
 26.723  0.619E-03  0.619E-03
 26.733  0.640E-03  0.640E-03
 26.743  0.665E-03  0.665E-03
 26.753  0.691E-03  0.691E-03
 26.763  0.718E-03  0.718E-03
 26.773  0.746E-03  0.746E-03
 26.783  0.774E-03  0.774E-03
 26.793  0.800E-03  0.800E-03
 26.803  0.824E-03  0.824E-03
 26.813  0.846E-03  0.846E-03
 26.823  0.864E-03  0.864E-03
 26.833  0.879E-03  0.879E-03
 26.843  0.889E-03  0.889E-03
 26.853  0.896E-03  0.896E-03
 26.863  0.898E-03  0.898E-03
 26.873  0.895E-03  0.895E-03
 26.883  0.888E-03  0.888E-03
 26.893  0.877E-03  0.877E-03
 26.903  0.862E-03  0.862E-03
 26.913  0.842E-03  0.842E-03
 26.923  0.820E-03  0.820E-03
 26.933  0.793E-03  0.793E-03
 26.943  0.765E-03  0.765E-03
 26.953  0.733E-03  0.733E-03
 26.963  0.700E-03  0.700E-03
 26.973  0.666E-03  0.666E-03
 26.983  0.631E-03  0.631E-03
 26.993  0.595E-03  0.595E-03
 27.003  0.560E-03  0.560E-03
 27.013  0.525E-03  0.525E-03
 27.023  0.491E-03  0.491E-03
 27.033  0.459E-03  0.459E-03
 27.043  0.428E-03  0.428E-03
 27.053  0.399E-03  0.399E-03
 27.063  0.372E-03  0.372E-03
 27.073  0.346E-03  0.346E-03
 27.083  0.323E-03  0.323E-03
 27.093  0.301E-03  0.301E-03
 27.103  0.281E-03  0.281E-03
 27.113  0.263E-03  0.263E-03
 27.123  0.247E-03  0.247E-03
 27.133  0.232E-03  0.232E-03
 27.143  0.219E-03  0.219E-03
 27.153  0.207E-03  0.207E-03
 27.163  0.196E-03  0.196E-03
 27.173  0.187E-03  0.187E-03
 27.183  0.179E-03  0.179E-03
 27.193  0.172E-03  0.172E-03
 27.203  0.168E-03  0.168E-03
 27.213  0.164E-03  0.164E-03
 27.223  0.162E-03  0.162E-03
 27.233  0.161E-03  0.161E-03
 27.243  0.162E-03  0.162E-03
 27.253  0.164E-03  0.164E-03
 27.263  0.166E-03  0.166E-03
 27.273  0.170E-03  0.170E-03
 27.283  0.173E-03  0.173E-03
 27.293  0.177E-03  0.177E-03
 27.303  0.181E-03  0.181E-03
 27.313  0.185E-03  0.185E-03
 27.323  0.187E-03  0.187E-03
 27.333  0.189E-03  0.189E-03
 27.343  0.190E-03  0.190E-03
 27.353  0.190E-03  0.190E-03
 27.363  0.188E-03  0.188E-03
 27.373  0.185E-03  0.185E-03
 27.383  0.181E-03  0.181E-03
 27.393  0.175E-03  0.175E-03
 27.403  0.168E-03  0.168E-03
 27.413  0.159E-03  0.159E-03
 27.423  0.150E-03  0.150E-03
 27.433  0.141E-03  0.141E-03
 27.443  0.130E-03  0.130E-03
 27.453  0.120E-03  0.120E-03
 27.463  0.109E-03  0.109E-03
 27.473  0.981E-04  0.981E-04
 27.483  0.876E-04  0.876E-04
 27.493  0.776E-04  0.776E-04
 27.503  0.681E-04  0.681E-04
 27.513  0.592E-04  0.592E-04
 27.523  0.510E-04  0.510E-04
 27.533  0.435E-04  0.435E-04
 27.543  0.368E-04  0.368E-04
 27.553  0.308E-04  0.308E-04
 27.563  0.256E-04  0.256E-04
 27.573  0.210E-04  0.210E-04
 27.583  0.171E-04  0.171E-04
 27.593  0.138E-04  0.138E-04
 27.603  0.110E-04  0.110E-04
 27.613  0.872E-05  0.872E-05
 27.623  0.684E-05  0.684E-05
 27.633  0.531E-05  0.531E-05
 27.643  0.408E-05  0.408E-05
 27.653  0.310E-05  0.310E-05
 27.663  0.234E-05  0.234E-05
 27.673  0.175E-05  0.175E-05
 27.683  0.129E-05  0.129E-05
 27.693  0.944E-06  0.944E-06
 27.703  0.684E-06  0.684E-06
 27.713  0.491E-06  0.491E-06
 27.723  0.348E-06  0.348E-06
 27.733  0.245E-06  0.245E-06
 27.743  0.170E-06  0.170E-06
 27.753  0.117E-06  0.117E-06
 27.763  0.802E-07  0.802E-07
 27.773  0.542E-07  0.542E-07
 27.783  0.362E-07  0.362E-07
 27.793  0.240E-07  0.240E-07
 27.803  0.158E-07  0.158E-07
 27.813  0.103E-07  0.103E-07
 27.823  0.662E-08  0.662E-08
 27.833  0.423E-08  0.423E-08
 27.843  0.269E-08  0.269E-08
 27.853  0.170E-08  0.170E-08
 27.863  0.106E-08  0.106E-08
 27.873  0.665E-09  0.665E-09
 27.883  0.415E-09  0.415E-09
 27.893  0.258E-09  0.258E-09
 27.903  0.161E-09  0.161E-09
 27.913  0.101E-09  0.101E-09
 27.923  0.635E-10  0.635E-10
 27.933  0.403E-10  0.403E-10
 27.943  0.257E-10  0.257E-10
 27.953  0.166E-10  0.166E-10
 27.963  0.108E-10  0.108E-10
 27.973  0.708E-11  0.708E-11
 27.983  0.467E-11  0.467E-11
 27.993  0.310E-11  0.310E-11
 28.003  0.206E-11  0.206E-11
 28.013  0.137E-11  0.137E-11
 28.023  0.907E-12  0.907E-12
 28.033  0.599E-12  0.599E-12
 28.043  0.394E-12  0.394E-12
 28.053  0.257E-12  0.257E-12
 28.063  0.167E-12  0.167E-12
 28.073  0.108E-12  0.108E-12
 28.083  0.686E-13  0.686E-13
 28.093  0.434E-13  0.434E-13
 28.103  0.272E-13  0.272E-13
 28.113  0.167E-13  0.167E-13
 28.123  0.103E-13  0.103E-13
 28.133  0.625E-14  0.625E-14
 28.143  0.376E-14  0.376E-14
 28.153  0.224E-14  0.224E-14
 28.163  0.132E-14  0.132E-14
 28.173  0.769E-15  0.769E-15
 28.183  0.443E-15  0.443E-15
 28.193  0.253E-15  0.253E-15
 28.203  0.143E-15  0.143E-15
 28.213  0.797E-16  0.797E-16
 28.223  0.440E-16  0.440E-16
 28.233  0.240E-16  0.240E-16
 28.243  0.130E-16  0.130E-16
