# E (eV)   ldos(E)   pdos(E)   
 -6.887  0.111E-06  0.111E-06
 -6.877  0.177E-06  0.177E-06
 -6.867  0.279E-06  0.279E-06
 -6.857  0.437E-06  0.437E-06
 -6.847  0.677E-06  0.677E-06
 -6.837  0.104E-05  0.104E-05
 -6.827  0.158E-05  0.158E-05
 -6.817  0.237E-05  0.237E-05
 -6.807  0.353E-05  0.353E-05
 -6.797  0.521E-05  0.521E-05
 -6.787  0.761E-05  0.761E-05
 -6.777  0.110E-04  0.110E-04
 -6.767  0.157E-04  0.157E-04
 -6.757  0.223E-04  0.223E-04
 -6.747  0.314E-04  0.314E-04
 -6.737  0.436E-04  0.436E-04
 -6.727  0.600E-04  0.600E-04
 -6.717  0.819E-04  0.819E-04
 -6.707  0.111E-03  0.111E-03
 -6.697  0.148E-03  0.148E-03
 -6.687  0.196E-03  0.196E-03
 -6.677  0.258E-03  0.258E-03
 -6.667  0.336E-03  0.336E-03
 -6.657  0.433E-03  0.433E-03
 -6.647  0.553E-03  0.553E-03
 -6.637  0.701E-03  0.701E-03
 -6.627  0.880E-03  0.880E-03
 -6.617  0.109E-02  0.109E-02
 -6.607  0.135E-02  0.135E-02
 -6.597  0.165E-02  0.165E-02
 -6.587  0.200E-02  0.200E-02
 -6.577  0.241E-02  0.241E-02
 -6.567  0.287E-02  0.287E-02
 -6.557  0.340E-02  0.340E-02
 -6.547  0.399E-02  0.399E-02
 -6.537  0.465E-02  0.465E-02
 -6.527  0.537E-02  0.537E-02
 -6.517  0.617E-02  0.617E-02
 -6.507  0.703E-02  0.703E-02
 -6.497  0.795E-02  0.795E-02
 -6.487  0.894E-02  0.894E-02
 -6.477  0.998E-02  0.998E-02
 -6.467  0.111E-01  0.111E-01
 -6.457  0.122E-01  0.122E-01
 -6.447  0.134E-01  0.134E-01
 -6.437  0.146E-01  0.146E-01
 -6.427  0.158E-01  0.158E-01
 -6.417  0.170E-01  0.170E-01
 -6.407  0.182E-01  0.182E-01
 -6.397  0.194E-01  0.194E-01
 -6.387  0.207E-01  0.207E-01
 -6.377  0.219E-01  0.219E-01
 -6.367  0.230E-01  0.230E-01
 -6.357  0.242E-01  0.242E-01
 -6.347  0.253E-01  0.253E-01
 -6.337  0.264E-01  0.264E-01
 -6.327  0.275E-01  0.275E-01
 -6.317  0.286E-01  0.286E-01
 -6.307  0.296E-01  0.296E-01
 -6.297  0.306E-01  0.306E-01
 -6.287  0.316E-01  0.316E-01
 -6.277  0.325E-01  0.325E-01
 -6.267  0.334E-01  0.334E-01
 -6.257  0.343E-01  0.343E-01
 -6.247  0.352E-01  0.352E-01
 -6.237  0.360E-01  0.360E-01
 -6.227  0.368E-01  0.368E-01
 -6.217  0.375E-01  0.375E-01
 -6.207  0.383E-01  0.383E-01
 -6.197  0.389E-01  0.389E-01
 -6.187  0.396E-01  0.396E-01
 -6.177  0.402E-01  0.402E-01
 -6.167  0.408E-01  0.408E-01
 -6.157  0.414E-01  0.414E-01
 -6.147  0.420E-01  0.420E-01
 -6.137  0.426E-01  0.426E-01
 -6.127  0.432E-01  0.432E-01
 -6.117  0.438E-01  0.438E-01
 -6.107  0.445E-01  0.445E-01
 -6.097  0.451E-01  0.451E-01
 -6.087  0.458E-01  0.458E-01
 -6.077  0.465E-01  0.465E-01
 -6.067  0.473E-01  0.473E-01
 -6.057  0.480E-01  0.480E-01
 -6.047  0.488E-01  0.488E-01
 -6.037  0.495E-01  0.495E-01
 -6.027  0.502E-01  0.502E-01
 -6.017  0.509E-01  0.509E-01
 -6.007  0.515E-01  0.515E-01
 -5.997  0.521E-01  0.521E-01
 -5.987  0.526E-01  0.526E-01
 -5.977  0.531E-01  0.531E-01
 -5.967  0.535E-01  0.535E-01
 -5.957  0.538E-01  0.538E-01
 -5.947  0.541E-01  0.541E-01
 -5.937  0.544E-01  0.544E-01
 -5.927  0.546E-01  0.546E-01
 -5.917  0.549E-01  0.549E-01
 -5.907  0.552E-01  0.552E-01
 -5.897  0.555E-01  0.555E-01
 -5.887  0.559E-01  0.559E-01
 -5.877  0.563E-01  0.563E-01
 -5.867  0.569E-01  0.569E-01
 -5.857  0.575E-01  0.575E-01
 -5.847  0.582E-01  0.582E-01
 -5.837  0.590E-01  0.590E-01
 -5.827  0.599E-01  0.599E-01
 -5.817  0.608E-01  0.608E-01
 -5.807  0.617E-01  0.617E-01
 -5.797  0.627E-01  0.627E-01
 -5.787  0.636E-01  0.636E-01
 -5.777  0.646E-01  0.646E-01
 -5.767  0.654E-01  0.654E-01
 -5.757  0.662E-01  0.662E-01
 -5.747  0.669E-01  0.669E-01
 -5.737  0.675E-01  0.675E-01
 -5.727  0.679E-01  0.679E-01
 -5.717  0.683E-01  0.683E-01
 -5.707  0.685E-01  0.685E-01
 -5.697  0.686E-01  0.686E-01
 -5.687  0.687E-01  0.687E-01
 -5.677  0.687E-01  0.687E-01
 -5.667  0.686E-01  0.686E-01
 -5.657  0.686E-01  0.686E-01
 -5.647  0.686E-01  0.686E-01
 -5.637  0.686E-01  0.686E-01
 -5.627  0.687E-01  0.687E-01
 -5.617  0.689E-01  0.689E-01
 -5.607  0.692E-01  0.692E-01
 -5.597  0.697E-01  0.697E-01
 -5.587  0.702E-01  0.702E-01
 -5.577  0.709E-01  0.709E-01
 -5.567  0.717E-01  0.717E-01
 -5.557  0.726E-01  0.726E-01
 -5.547  0.736E-01  0.736E-01
 -5.537  0.747E-01  0.747E-01
 -5.527  0.758E-01  0.758E-01
 -5.517  0.770E-01  0.770E-01
 -5.507  0.782E-01  0.782E-01
 -5.497  0.794E-01  0.794E-01
 -5.487  0.805E-01  0.805E-01
 -5.477  0.816E-01  0.816E-01
 -5.467  0.827E-01  0.827E-01
 -5.457  0.836E-01  0.836E-01
 -5.447  0.845E-01  0.845E-01
 -5.437  0.853E-01  0.853E-01
 -5.427  0.859E-01  0.859E-01
 -5.417  0.864E-01  0.864E-01
 -5.407  0.867E-01  0.867E-01
 -5.397  0.869E-01  0.869E-01
 -5.387  0.870E-01  0.870E-01
 -5.377  0.870E-01  0.870E-01
 -5.367  0.868E-01  0.868E-01
 -5.357  0.866E-01  0.866E-01
 -5.347  0.863E-01  0.863E-01
 -5.337  0.859E-01  0.859E-01
 -5.327  0.856E-01  0.856E-01
 -5.317  0.853E-01  0.853E-01
 -5.307  0.851E-01  0.851E-01
 -5.297  0.850E-01  0.850E-01
 -5.287  0.850E-01  0.850E-01
 -5.277  0.852E-01  0.852E-01
 -5.267  0.856E-01  0.856E-01
 -5.257  0.863E-01  0.863E-01
 -5.247  0.871E-01  0.871E-01
 -5.237  0.882E-01  0.882E-01
 -5.227  0.895E-01  0.895E-01
 -5.217  0.910E-01  0.910E-01
 -5.207  0.926E-01  0.926E-01
 -5.197  0.943E-01  0.943E-01
 -5.187  0.961E-01  0.961E-01
 -5.177  0.980E-01  0.980E-01
 -5.167  0.998E-01  0.998E-01
 -5.157  0.102E+00  0.102E+00
 -5.147  0.103E+00  0.103E+00
 -5.137  0.105E+00  0.105E+00
 -5.127  0.106E+00  0.106E+00
 -5.117  0.107E+00  0.107E+00
 -5.107  0.108E+00  0.108E+00
 -5.097  0.109E+00  0.109E+00
 -5.087  0.109E+00  0.109E+00
 -5.077  0.110E+00  0.110E+00
 -5.067  0.110E+00  0.110E+00
 -5.057  0.110E+00  0.110E+00
 -5.047  0.109E+00  0.109E+00
 -5.037  0.109E+00  0.109E+00
 -5.027  0.109E+00  0.109E+00
 -5.017  0.108E+00  0.108E+00
 -5.007  0.108E+00  0.108E+00
 -4.997  0.107E+00  0.107E+00
 -4.987  0.107E+00  0.107E+00
 -4.977  0.107E+00  0.107E+00
 -4.967  0.106E+00  0.106E+00
 -4.957  0.106E+00  0.106E+00
 -4.947  0.106E+00  0.106E+00
 -4.937  0.106E+00  0.106E+00
 -4.927  0.107E+00  0.107E+00
 -4.917  0.107E+00  0.107E+00
 -4.907  0.108E+00  0.108E+00
 -4.897  0.109E+00  0.109E+00
 -4.887  0.110E+00  0.110E+00
 -4.877  0.111E+00  0.111E+00
 -4.867  0.113E+00  0.113E+00
 -4.857  0.115E+00  0.115E+00
 -4.847  0.117E+00  0.117E+00
 -4.837  0.119E+00  0.119E+00
 -4.827  0.121E+00  0.121E+00
 -4.817  0.123E+00  0.123E+00
 -4.807  0.126E+00  0.126E+00
 -4.797  0.128E+00  0.128E+00
 -4.787  0.130E+00  0.130E+00
 -4.777  0.132E+00  0.132E+00
 -4.767  0.134E+00  0.134E+00
 -4.757  0.135E+00  0.135E+00
 -4.747  0.137E+00  0.137E+00
 -4.737  0.138E+00  0.138E+00
 -4.727  0.138E+00  0.138E+00
 -4.717  0.139E+00  0.139E+00
 -4.707  0.139E+00  0.139E+00
 -4.697  0.139E+00  0.139E+00
 -4.687  0.139E+00  0.139E+00
 -4.677  0.139E+00  0.139E+00
 -4.667  0.138E+00  0.138E+00
 -4.657  0.138E+00  0.138E+00
 -4.647  0.138E+00  0.138E+00
 -4.637  0.137E+00  0.137E+00
 -4.627  0.137E+00  0.137E+00
 -4.617  0.137E+00  0.137E+00
 -4.607  0.137E+00  0.137E+00
 -4.597  0.137E+00  0.137E+00
 -4.587  0.137E+00  0.137E+00
 -4.577  0.137E+00  0.137E+00
 -4.567  0.138E+00  0.138E+00
 -4.557  0.138E+00  0.138E+00
 -4.547  0.139E+00  0.139E+00
 -4.537  0.139E+00  0.139E+00
 -4.527  0.140E+00  0.140E+00
 -4.517  0.141E+00  0.141E+00
 -4.507  0.142E+00  0.142E+00
 -4.497  0.144E+00  0.144E+00
 -4.487  0.145E+00  0.145E+00
 -4.477  0.147E+00  0.147E+00
 -4.467  0.148E+00  0.148E+00
 -4.457  0.150E+00  0.150E+00
 -4.447  0.153E+00  0.153E+00
 -4.437  0.155E+00  0.155E+00
 -4.427  0.157E+00  0.157E+00
 -4.417  0.160E+00  0.160E+00
 -4.407  0.163E+00  0.163E+00
 -4.397  0.165E+00  0.165E+00
 -4.387  0.168E+00  0.168E+00
 -4.377  0.171E+00  0.171E+00
 -4.367  0.173E+00  0.173E+00
 -4.357  0.176E+00  0.176E+00
 -4.347  0.178E+00  0.178E+00
 -4.337  0.180E+00  0.180E+00
 -4.327  0.182E+00  0.182E+00
 -4.317  0.183E+00  0.183E+00
 -4.307  0.184E+00  0.184E+00
 -4.297  0.185E+00  0.185E+00
 -4.287  0.186E+00  0.186E+00
 -4.277  0.186E+00  0.186E+00
 -4.267  0.185E+00  0.185E+00
 -4.257  0.185E+00  0.185E+00
 -4.247  0.184E+00  0.184E+00
 -4.237  0.184E+00  0.184E+00
 -4.227  0.183E+00  0.183E+00
 -4.217  0.182E+00  0.182E+00
 -4.207  0.181E+00  0.181E+00
 -4.197  0.180E+00  0.180E+00
 -4.187  0.179E+00  0.179E+00
 -4.177  0.179E+00  0.179E+00
 -4.167  0.178E+00  0.178E+00
 -4.157  0.179E+00  0.179E+00
 -4.147  0.179E+00  0.179E+00
 -4.137  0.180E+00  0.180E+00
 -4.127  0.182E+00  0.182E+00
 -4.117  0.184E+00  0.184E+00
 -4.107  0.186E+00  0.186E+00
 -4.097  0.189E+00  0.189E+00
 -4.087  0.192E+00  0.192E+00
 -4.077  0.195E+00  0.195E+00
 -4.067  0.199E+00  0.199E+00
 -4.057  0.203E+00  0.203E+00
 -4.047  0.207E+00  0.207E+00
 -4.037  0.211E+00  0.211E+00
 -4.027  0.215E+00  0.215E+00
 -4.017  0.219E+00  0.219E+00
 -4.007  0.222E+00  0.222E+00
 -3.997  0.226E+00  0.226E+00
 -3.987  0.229E+00  0.229E+00
 -3.977  0.233E+00  0.233E+00
 -3.967  0.236E+00  0.236E+00
 -3.957  0.238E+00  0.238E+00
 -3.947  0.241E+00  0.241E+00
 -3.937  0.243E+00  0.243E+00
 -3.927  0.245E+00  0.245E+00
 -3.917  0.246E+00  0.246E+00
 -3.907  0.247E+00  0.247E+00
 -3.897  0.248E+00  0.248E+00
 -3.887  0.249E+00  0.249E+00
 -3.877  0.249E+00  0.249E+00
 -3.867  0.249E+00  0.249E+00
 -3.857  0.249E+00  0.249E+00
 -3.847  0.249E+00  0.249E+00
 -3.837  0.249E+00  0.249E+00
 -3.827  0.249E+00  0.249E+00
 -3.817  0.248E+00  0.248E+00
 -3.807  0.248E+00  0.248E+00
 -3.797  0.248E+00  0.248E+00
 -3.787  0.248E+00  0.248E+00
 -3.777  0.249E+00  0.249E+00
 -3.767  0.250E+00  0.250E+00
 -3.757  0.252E+00  0.252E+00
 -3.747  0.254E+00  0.254E+00
 -3.737  0.256E+00  0.256E+00
 -3.727  0.259E+00  0.259E+00
 -3.717  0.263E+00  0.263E+00
 -3.707  0.267E+00  0.267E+00
 -3.697  0.272E+00  0.272E+00
 -3.687  0.276E+00  0.276E+00
 -3.677  0.282E+00  0.282E+00
 -3.667  0.287E+00  0.287E+00
 -3.657  0.293E+00  0.293E+00
 -3.647  0.298E+00  0.298E+00
 -3.637  0.304E+00  0.304E+00
 -3.627  0.310E+00  0.310E+00
 -3.617  0.315E+00  0.315E+00
 -3.607  0.321E+00  0.321E+00
 -3.597  0.326E+00  0.326E+00
 -3.587  0.331E+00  0.331E+00
 -3.577  0.336E+00  0.336E+00
 -3.567  0.341E+00  0.341E+00
 -3.557  0.345E+00  0.345E+00
 -3.547  0.349E+00  0.349E+00
 -3.537  0.353E+00  0.353E+00
 -3.527  0.357E+00  0.357E+00
 -3.517  0.361E+00  0.361E+00
 -3.507  0.364E+00  0.364E+00
 -3.497  0.368E+00  0.368E+00
 -3.487  0.371E+00  0.371E+00
 -3.477  0.374E+00  0.374E+00
 -3.467  0.377E+00  0.377E+00
 -3.457  0.380E+00  0.380E+00
 -3.447  0.383E+00  0.383E+00
 -3.437  0.387E+00  0.387E+00
 -3.427  0.390E+00  0.390E+00
 -3.417  0.394E+00  0.394E+00
 -3.407  0.398E+00  0.398E+00
 -3.397  0.403E+00  0.403E+00
 -3.387  0.407E+00  0.407E+00
 -3.377  0.413E+00  0.413E+00
 -3.367  0.419E+00  0.419E+00
 -3.357  0.425E+00  0.425E+00
 -3.347  0.433E+00  0.433E+00
 -3.337  0.440E+00  0.440E+00
 -3.327  0.448E+00  0.448E+00
 -3.317  0.457E+00  0.457E+00
 -3.307  0.466E+00  0.466E+00
 -3.297  0.475E+00  0.475E+00
 -3.287  0.485E+00  0.485E+00
 -3.277  0.494E+00  0.494E+00
 -3.267  0.504E+00  0.504E+00
 -3.257  0.513E+00  0.513E+00
 -3.247  0.521E+00  0.521E+00
 -3.237  0.529E+00  0.529E+00
 -3.227  0.537E+00  0.537E+00
 -3.217  0.543E+00  0.543E+00
 -3.207  0.549E+00  0.549E+00
 -3.197  0.554E+00  0.554E+00
 -3.187  0.558E+00  0.558E+00
 -3.177  0.560E+00  0.560E+00
 -3.167  0.562E+00  0.562E+00
 -3.157  0.563E+00  0.563E+00
 -3.147  0.564E+00  0.564E+00
 -3.137  0.563E+00  0.563E+00
 -3.127  0.562E+00  0.562E+00
 -3.117  0.561E+00  0.561E+00
 -3.107  0.560E+00  0.560E+00
 -3.097  0.559E+00  0.559E+00
 -3.087  0.557E+00  0.557E+00
 -3.077  0.557E+00  0.557E+00
 -3.067  0.557E+00  0.557E+00
 -3.057  0.557E+00  0.557E+00
 -3.047  0.558E+00  0.558E+00
 -3.037  0.560E+00  0.560E+00
 -3.027  0.562E+00  0.562E+00
 -3.017  0.565E+00  0.565E+00
 -3.007  0.569E+00  0.569E+00
 -2.997  0.573E+00  0.573E+00
 -2.987  0.578E+00  0.578E+00
 -2.977  0.583E+00  0.583E+00
 -2.967  0.588E+00  0.588E+00
 -2.957  0.594E+00  0.594E+00
 -2.947  0.599E+00  0.599E+00
 -2.937  0.604E+00  0.604E+00
 -2.927  0.608E+00  0.608E+00
 -2.917  0.613E+00  0.613E+00
 -2.907  0.616E+00  0.616E+00
 -2.897  0.620E+00  0.620E+00
 -2.887  0.622E+00  0.622E+00
 -2.877  0.625E+00  0.625E+00
 -2.867  0.626E+00  0.626E+00
 -2.857  0.628E+00  0.628E+00
 -2.847  0.629E+00  0.629E+00
 -2.837  0.630E+00  0.630E+00
 -2.827  0.631E+00  0.631E+00
 -2.817  0.632E+00  0.632E+00
 -2.807  0.634E+00  0.634E+00
 -2.797  0.635E+00  0.635E+00
 -2.787  0.637E+00  0.637E+00
 -2.777  0.639E+00  0.639E+00
 -2.767  0.642E+00  0.642E+00
 -2.757  0.645E+00  0.645E+00
 -2.747  0.649E+00  0.649E+00
 -2.737  0.653E+00  0.653E+00
 -2.727  0.657E+00  0.657E+00
 -2.717  0.662E+00  0.662E+00
 -2.707  0.667E+00  0.667E+00
 -2.697  0.673E+00  0.673E+00
 -2.687  0.678E+00  0.678E+00
 -2.677  0.684E+00  0.684E+00
 -2.667  0.690E+00  0.690E+00
 -2.657  0.696E+00  0.696E+00
 -2.647  0.702E+00  0.702E+00
 -2.637  0.708E+00  0.708E+00
 -2.627  0.713E+00  0.713E+00
 -2.617  0.719E+00  0.719E+00
 -2.607  0.725E+00  0.725E+00
 -2.597  0.732E+00  0.732E+00
 -2.587  0.738E+00  0.738E+00
 -2.577  0.745E+00  0.745E+00
 -2.567  0.752E+00  0.752E+00
 -2.557  0.759E+00  0.759E+00
 -2.547  0.767E+00  0.767E+00
 -2.537  0.775E+00  0.775E+00
 -2.527  0.784E+00  0.784E+00
 -2.517  0.793E+00  0.793E+00
 -2.507  0.802E+00  0.802E+00
 -2.497  0.812E+00  0.812E+00
 -2.487  0.822E+00  0.822E+00
 -2.477  0.832E+00  0.832E+00
 -2.467  0.841E+00  0.841E+00
 -2.457  0.851E+00  0.851E+00
 -2.447  0.860E+00  0.860E+00
 -2.437  0.868E+00  0.868E+00
 -2.427  0.874E+00  0.874E+00
 -2.417  0.880E+00  0.880E+00
 -2.407  0.883E+00  0.883E+00
 -2.397  0.885E+00  0.885E+00
 -2.387  0.884E+00  0.884E+00
 -2.377  0.881E+00  0.881E+00
 -2.367  0.875E+00  0.875E+00
 -2.357  0.865E+00  0.865E+00
 -2.347  0.853E+00  0.853E+00
 -2.337  0.836E+00  0.836E+00
 -2.327  0.817E+00  0.817E+00
 -2.317  0.794E+00  0.794E+00
 -2.307  0.768E+00  0.768E+00
 -2.297  0.739E+00  0.739E+00
 -2.287  0.707E+00  0.707E+00
 -2.277  0.672E+00  0.672E+00
 -2.267  0.635E+00  0.635E+00
 -2.257  0.597E+00  0.597E+00
 -2.247  0.557E+00  0.557E+00
 -2.237  0.517E+00  0.517E+00
 -2.227  0.476E+00  0.476E+00
 -2.217  0.435E+00  0.435E+00
 -2.207  0.395E+00  0.395E+00
 -2.197  0.356E+00  0.356E+00
 -2.187  0.319E+00  0.319E+00
 -2.177  0.283E+00  0.283E+00
 -2.167  0.250E+00  0.250E+00
 -2.157  0.219E+00  0.219E+00
 -2.147  0.190E+00  0.190E+00
 -2.137  0.164E+00  0.164E+00
 -2.127  0.140E+00  0.140E+00
 -2.117  0.119E+00  0.119E+00
 -2.107  0.997E-01  0.997E-01
 -2.097  0.831E-01  0.831E-01
 -2.087  0.688E-01  0.688E-01
 -2.077  0.564E-01  0.564E-01
 -2.067  0.459E-01  0.459E-01
 -2.057  0.370E-01  0.370E-01
 -2.047  0.296E-01  0.296E-01
 -2.037  0.235E-01  0.235E-01
 -2.027  0.184E-01  0.184E-01
 -2.017  0.144E-01  0.144E-01
 -2.007  0.111E-01  0.111E-01
 -1.997  0.849E-02  0.849E-02
 -1.987  0.643E-02  0.643E-02
 -1.977  0.484E-02  0.484E-02
 -1.967  0.360E-02  0.360E-02
 -1.957  0.266E-02  0.266E-02
 -1.947  0.194E-02  0.194E-02
 -1.937  0.141E-02  0.141E-02
 -1.927  0.101E-02  0.101E-02
 -1.917  0.718E-03  0.718E-03
 -1.907  0.505E-03  0.505E-03
 -1.897  0.352E-03  0.352E-03
 -1.887  0.243E-03  0.243E-03
 -1.877  0.167E-03  0.167E-03
 -1.867  0.113E-03  0.113E-03
 -1.857  0.758E-04  0.758E-04
 -1.847  0.504E-04  0.504E-04
 -1.837  0.331E-04  0.331E-04
 -1.827  0.216E-04  0.216E-04
 -1.817  0.139E-04  0.139E-04
 -1.807  0.891E-05  0.891E-05
 -1.797  0.564E-05  0.564E-05
 -1.787  0.353E-05  0.353E-05
 -1.777  0.219E-05  0.219E-05
 -1.767  0.135E-05  0.135E-05
 -1.757  0.818E-06  0.818E-06
 -1.747  0.493E-06  0.493E-06
 -1.737  0.294E-06  0.294E-06
 -1.727  0.173E-06  0.173E-06
 -1.717  0.101E-06  0.101E-06
 -1.707  0.585E-07  0.585E-07
 -1.697  0.335E-07  0.335E-07
 -1.687  0.190E-07  0.190E-07
 -1.677  0.106E-07  0.106E-07
 -1.667  0.591E-08  0.591E-08
 -1.657  0.325E-08  0.325E-08
 -1.647  0.177E-08  0.177E-08
 -1.637  0.951E-09  0.951E-09
 -1.627  0.507E-09  0.507E-09
 -1.617  0.267E-09  0.267E-09
 -1.607  0.139E-09  0.139E-09
 -1.597  0.717E-10  0.717E-10
 -1.587  0.367E-10  0.367E-10
 -1.577  0.186E-10  0.186E-10
 -1.567  0.912E-11  0.912E-11
 -1.557  0.451E-11  0.451E-11
 -1.547  0.215E-11  0.215E-11
 -1.537  0.876E-12  0.876E-12
 -1.527  0.425E-12  0.425E-12
 -1.517  0.140E-12  0.140E-12
 -1.507  0.670E-13  0.670E-13
 -1.497  0.000E+00  0.000E+00
 -1.487  0.000E+00  0.000E+00
 -1.477  0.000E+00  0.000E+00
 -1.467  0.000E+00  0.000E+00
 -1.457  0.000E+00  0.000E+00
 -1.447  0.000E+00  0.000E+00
 -1.437  0.000E+00  0.000E+00
 -1.427  0.000E+00  0.000E+00
 -1.417  0.000E+00  0.000E+00
 -1.407  0.000E+00  0.000E+00
 -1.397  0.000E+00  0.000E+00
 -1.387  0.000E+00  0.000E+00
 -1.377  0.000E+00  0.000E+00
 -1.367  0.000E+00  0.000E+00
 -1.357  0.000E+00  0.000E+00
 -1.347  0.000E+00  0.000E+00
 -1.337  0.000E+00  0.000E+00
 -1.327  0.000E+00  0.000E+00
 -1.317  0.000E+00  0.000E+00
 -1.307  0.000E+00  0.000E+00
 -1.297  0.000E+00  0.000E+00
 -1.287  0.000E+00  0.000E+00
 -1.277  0.000E+00  0.000E+00
 -1.267  0.000E+00  0.000E+00
 -1.257  0.000E+00  0.000E+00
 -1.247  0.000E+00  0.000E+00
 -1.237  0.000E+00  0.000E+00
 -1.227  0.000E+00  0.000E+00
 -1.217  0.000E+00  0.000E+00
 -1.207  0.000E+00  0.000E+00
 -1.197  0.000E+00  0.000E+00
 -1.187  0.000E+00  0.000E+00
 -1.177  0.000E+00  0.000E+00
 -1.167  0.000E+00  0.000E+00
 -1.157  0.000E+00  0.000E+00
 -1.147  0.000E+00  0.000E+00
 -1.137  0.000E+00  0.000E+00
 -1.127  0.000E+00  0.000E+00
 -1.117  0.000E+00  0.000E+00
 -1.107  0.000E+00  0.000E+00
 -1.097  0.000E+00  0.000E+00
 -1.087  0.000E+00  0.000E+00
 -1.077  0.000E+00  0.000E+00
 -1.067  0.000E+00  0.000E+00
 -1.057  0.000E+00  0.000E+00
 -1.047  0.000E+00  0.000E+00
 -1.037  0.000E+00  0.000E+00
 -1.027  0.000E+00  0.000E+00
 -1.017  0.000E+00  0.000E+00
 -1.007  0.000E+00  0.000E+00
 -0.997  0.000E+00  0.000E+00
 -0.987  0.000E+00  0.000E+00
 -0.977  0.000E+00  0.000E+00
 -0.967  0.000E+00  0.000E+00
 -0.957  0.000E+00  0.000E+00
 -0.947  0.000E+00  0.000E+00
 -0.937  0.000E+00  0.000E+00
 -0.927  0.000E+00  0.000E+00
 -0.917  0.000E+00  0.000E+00
 -0.907  0.000E+00  0.000E+00
 -0.897  0.000E+00  0.000E+00
 -0.887  0.000E+00  0.000E+00
 -0.877  0.000E+00  0.000E+00
 -0.867  0.000E+00  0.000E+00
 -0.857  0.000E+00  0.000E+00
 -0.847  0.000E+00  0.000E+00
 -0.837  0.000E+00  0.000E+00
 -0.827  0.000E+00  0.000E+00
 -0.817  0.000E+00  0.000E+00
 -0.807  0.000E+00  0.000E+00
 -0.797  0.000E+00  0.000E+00
 -0.787  0.000E+00  0.000E+00
 -0.777  0.000E+00  0.000E+00
 -0.767  0.000E+00  0.000E+00
 -0.757  0.000E+00  0.000E+00
 -0.747  0.000E+00  0.000E+00
 -0.737  0.000E+00  0.000E+00
 -0.727  0.000E+00  0.000E+00
 -0.717  0.000E+00  0.000E+00
 -0.707  0.000E+00  0.000E+00
 -0.697  0.000E+00  0.000E+00
 -0.687  0.000E+00  0.000E+00
 -0.677  0.000E+00  0.000E+00
 -0.667  0.000E+00  0.000E+00
 -0.657  0.000E+00  0.000E+00
 -0.647  0.000E+00  0.000E+00
 -0.637  0.000E+00  0.000E+00
 -0.627  0.000E+00  0.000E+00
 -0.617  0.000E+00  0.000E+00
 -0.607  0.000E+00  0.000E+00
 -0.597  0.000E+00  0.000E+00
 -0.587  0.000E+00  0.000E+00
 -0.577  0.000E+00  0.000E+00
 -0.567  0.000E+00  0.000E+00
 -0.557  0.000E+00  0.000E+00
 -0.547  0.000E+00  0.000E+00
 -0.537  0.000E+00  0.000E+00
 -0.527  0.000E+00  0.000E+00
 -0.517  0.000E+00  0.000E+00
 -0.507  0.000E+00  0.000E+00
 -0.497  0.000E+00  0.000E+00
 -0.487  0.000E+00  0.000E+00
 -0.477  0.000E+00  0.000E+00
 -0.467  0.000E+00  0.000E+00
 -0.457  0.000E+00  0.000E+00
 -0.447  0.000E+00  0.000E+00
 -0.437  0.000E+00  0.000E+00
 -0.427  0.000E+00  0.000E+00
 -0.417  0.000E+00  0.000E+00
 -0.407  0.000E+00  0.000E+00
 -0.397  0.000E+00  0.000E+00
 -0.387  0.000E+00  0.000E+00
 -0.377  0.000E+00  0.000E+00
 -0.367  0.000E+00  0.000E+00
 -0.357  0.000E+00  0.000E+00
 -0.347  0.000E+00  0.000E+00
 -0.337  0.000E+00  0.000E+00
 -0.327  0.000E+00  0.000E+00
 -0.317  0.000E+00  0.000E+00
 -0.307  0.000E+00  0.000E+00
 -0.297  0.000E+00  0.000E+00
 -0.287  0.000E+00  0.000E+00
 -0.277  0.000E+00  0.000E+00
 -0.267  0.000E+00  0.000E+00
 -0.257  0.000E+00  0.000E+00
 -0.247  0.000E+00  0.000E+00
 -0.237  0.000E+00  0.000E+00
 -0.227  0.000E+00  0.000E+00
 -0.217  0.000E+00  0.000E+00
 -0.207  0.000E+00  0.000E+00
 -0.197  0.000E+00  0.000E+00
 -0.187  0.000E+00  0.000E+00
 -0.177  0.000E+00  0.000E+00
 -0.167  0.000E+00  0.000E+00
 -0.157  0.000E+00  0.000E+00
 -0.147  0.000E+00  0.000E+00
 -0.137  0.000E+00  0.000E+00
 -0.127  0.000E+00  0.000E+00
 -0.117  0.000E+00  0.000E+00
 -0.107  0.000E+00  0.000E+00
 -0.097  0.000E+00  0.000E+00
 -0.087  0.000E+00  0.000E+00
 -0.077  0.000E+00  0.000E+00
 -0.067  0.000E+00  0.000E+00
 -0.057  0.000E+00  0.000E+00
 -0.047  0.000E+00  0.000E+00
 -0.037  0.000E+00  0.000E+00
 -0.027  0.000E+00  0.000E+00
 -0.017  0.000E+00  0.000E+00
 -0.007  0.000E+00  0.000E+00
  0.003  0.000E+00  0.000E+00
  0.013  0.000E+00  0.000E+00
  0.023  0.000E+00  0.000E+00
  0.033  0.000E+00  0.000E+00
  0.043  0.000E+00  0.000E+00
  0.053  0.000E+00  0.000E+00
  0.063  0.000E+00  0.000E+00
  0.073  0.000E+00  0.000E+00
  0.083  0.000E+00  0.000E+00
  0.093  0.000E+00  0.000E+00
  0.103  0.000E+00  0.000E+00
  0.113  0.000E+00  0.000E+00
  0.123  0.000E+00  0.000E+00
  0.133  0.000E+00  0.000E+00
  0.143  0.000E+00  0.000E+00
  0.153  0.000E+00  0.000E+00
  0.163  0.000E+00  0.000E+00
  0.173  0.000E+00  0.000E+00
  0.183  0.000E+00  0.000E+00
  0.193  0.000E+00  0.000E+00
  0.203  0.000E+00  0.000E+00
  0.213  0.000E+00  0.000E+00
  0.223  0.000E+00  0.000E+00
  0.233  0.000E+00  0.000E+00
  0.243  0.000E+00  0.000E+00
  0.253  0.000E+00  0.000E+00
  0.263  0.000E+00  0.000E+00
  0.273  0.000E+00  0.000E+00
  0.283  0.000E+00  0.000E+00
  0.293  0.000E+00  0.000E+00
  0.303  0.000E+00  0.000E+00
  0.313  0.000E+00  0.000E+00
  0.323  0.000E+00  0.000E+00
  0.333  0.000E+00  0.000E+00
  0.343  0.000E+00  0.000E+00
  0.353  0.000E+00  0.000E+00
  0.363  0.000E+00  0.000E+00
  0.373  0.000E+00  0.000E+00
  0.383  0.000E+00  0.000E+00
  0.393  0.000E+00  0.000E+00
  0.403  0.000E+00  0.000E+00
  0.413  0.000E+00  0.000E+00
  0.423  0.000E+00  0.000E+00
  0.433  0.000E+00  0.000E+00
  0.443  0.000E+00  0.000E+00
  0.453  0.000E+00  0.000E+00
  0.463  0.000E+00  0.000E+00
  0.473  0.000E+00  0.000E+00
  0.483  0.000E+00  0.000E+00
  0.493  0.000E+00  0.000E+00
  0.503  0.000E+00  0.000E+00
  0.513  0.000E+00  0.000E+00
  0.523  0.000E+00  0.000E+00
  0.533  0.000E+00  0.000E+00
  0.543  0.000E+00  0.000E+00
  0.553  0.000E+00  0.000E+00
  0.563  0.000E+00  0.000E+00
  0.573  0.000E+00  0.000E+00
  0.583  0.000E+00  0.000E+00
  0.593  0.000E+00  0.000E+00
  0.603  0.000E+00  0.000E+00
  0.613  0.000E+00  0.000E+00
  0.623  0.000E+00  0.000E+00
  0.633  0.000E+00  0.000E+00
  0.643  0.000E+00  0.000E+00
  0.653  0.000E+00  0.000E+00
  0.663  0.000E+00  0.000E+00
  0.673  0.000E+00  0.000E+00
  0.683  0.000E+00  0.000E+00
  0.693  0.000E+00  0.000E+00
  0.703  0.000E+00  0.000E+00
  0.713  0.000E+00  0.000E+00
  0.723  0.000E+00  0.000E+00
  0.733  0.000E+00  0.000E+00
  0.743  0.000E+00  0.000E+00
  0.753  0.000E+00  0.000E+00
  0.763  0.000E+00  0.000E+00
  0.773  0.000E+00  0.000E+00
  0.783  0.000E+00  0.000E+00
  0.793  0.000E+00  0.000E+00
  0.803  0.000E+00  0.000E+00
  0.813  0.000E+00  0.000E+00
  0.823  0.000E+00  0.000E+00
  0.833  0.000E+00  0.000E+00
  0.843  0.000E+00  0.000E+00
  0.853  0.000E+00  0.000E+00
  0.863  0.000E+00  0.000E+00
  0.873  0.000E+00  0.000E+00
  0.883  0.000E+00  0.000E+00
  0.893  0.000E+00  0.000E+00
  0.903  0.000E+00  0.000E+00
  0.913  0.000E+00  0.000E+00
  0.923  0.000E+00  0.000E+00
  0.933  0.000E+00  0.000E+00
  0.943  0.000E+00  0.000E+00
  0.953  0.000E+00  0.000E+00
  0.963  0.000E+00  0.000E+00
  0.973  0.000E+00  0.000E+00
  0.983  0.000E+00  0.000E+00
  0.993  0.000E+00  0.000E+00
  1.003  0.000E+00  0.000E+00
  1.013  0.000E+00  0.000E+00
  1.023  0.000E+00  0.000E+00
  1.033  0.000E+00  0.000E+00
  1.043  0.000E+00  0.000E+00
  1.053  0.000E+00  0.000E+00
  1.063  0.000E+00  0.000E+00
  1.073  0.000E+00  0.000E+00
  1.083  0.000E+00  0.000E+00
  1.093  0.000E+00  0.000E+00
  1.103  0.000E+00  0.000E+00
  1.113  0.000E+00  0.000E+00
  1.123  0.000E+00  0.000E+00
  1.133  0.000E+00  0.000E+00
  1.143  0.000E+00  0.000E+00
  1.153  0.000E+00  0.000E+00
  1.163  0.000E+00  0.000E+00
  1.173  0.000E+00  0.000E+00
  1.183  0.000E+00  0.000E+00
  1.193  0.000E+00  0.000E+00
  1.203  0.000E+00  0.000E+00
  1.213  0.000E+00  0.000E+00
  1.223  0.000E+00  0.000E+00
  1.233  0.000E+00  0.000E+00
  1.243  0.000E+00  0.000E+00
  1.253  0.000E+00  0.000E+00
  1.263  0.000E+00  0.000E+00
  1.273  0.000E+00  0.000E+00
  1.283  0.000E+00  0.000E+00
  1.293  0.000E+00  0.000E+00
  1.303  0.000E+00  0.000E+00
  1.313  0.000E+00  0.000E+00
  1.323  0.000E+00  0.000E+00
  1.333  0.000E+00  0.000E+00
  1.343  0.000E+00  0.000E+00
  1.353  0.000E+00  0.000E+00
  1.363  0.000E+00  0.000E+00
  1.373  0.000E+00  0.000E+00
  1.383  0.000E+00  0.000E+00
  1.393  0.000E+00  0.000E+00
  1.403  0.000E+00  0.000E+00
  1.413  0.000E+00  0.000E+00
  1.423  0.000E+00  0.000E+00
  1.433  0.000E+00  0.000E+00
  1.443  0.000E+00  0.000E+00
  1.453  0.000E+00  0.000E+00
  1.463  0.000E+00  0.000E+00
  1.473  0.000E+00  0.000E+00
  1.483  0.000E+00  0.000E+00
  1.493  0.000E+00  0.000E+00
  1.503  0.000E+00  0.000E+00
  1.513  0.000E+00  0.000E+00
  1.523  0.000E+00  0.000E+00
  1.533  0.000E+00  0.000E+00
  1.543  0.000E+00  0.000E+00
  1.553  0.000E+00  0.000E+00
  1.563  0.000E+00  0.000E+00
  1.573  0.000E+00  0.000E+00
  1.583  0.000E+00  0.000E+00
  1.593  0.000E+00  0.000E+00
  1.603  0.000E+00  0.000E+00
  1.613  0.000E+00  0.000E+00
  1.623  0.000E+00  0.000E+00
  1.633  0.000E+00  0.000E+00
  1.643  0.000E+00  0.000E+00
  1.653  0.000E+00  0.000E+00
  1.663  0.000E+00  0.000E+00
  1.673  0.000E+00  0.000E+00
  1.683  0.000E+00  0.000E+00
  1.693  0.000E+00  0.000E+00
  1.703  0.000E+00  0.000E+00
  1.713  0.000E+00  0.000E+00
  1.723  0.000E+00  0.000E+00
  1.733  0.000E+00  0.000E+00
  1.743  0.000E+00  0.000E+00
  1.753  0.000E+00  0.000E+00
  1.763  0.000E+00  0.000E+00
  1.773  0.000E+00  0.000E+00
  1.783  0.000E+00  0.000E+00
  1.793  0.000E+00  0.000E+00
  1.803  0.000E+00  0.000E+00
  1.813  0.000E+00  0.000E+00
  1.823  0.000E+00  0.000E+00
  1.833  0.000E+00  0.000E+00
  1.843  0.000E+00  0.000E+00
  1.853  0.000E+00  0.000E+00
  1.863  0.000E+00  0.000E+00
  1.873  0.000E+00  0.000E+00
  1.883  0.000E+00  0.000E+00
  1.893  0.000E+00  0.000E+00
  1.903  0.000E+00  0.000E+00
  1.913  0.000E+00  0.000E+00
  1.923  0.000E+00  0.000E+00
  1.933  0.000E+00  0.000E+00
  1.943  0.000E+00  0.000E+00
  1.953  0.000E+00  0.000E+00
  1.963  0.000E+00  0.000E+00
  1.973  0.000E+00  0.000E+00
  1.983  0.000E+00  0.000E+00
  1.993  0.000E+00  0.000E+00
  2.003  0.000E+00  0.000E+00
  2.013  0.000E+00  0.000E+00
  2.023  0.000E+00  0.000E+00
  2.033  0.158E-27  0.158E-27
  2.043  0.330E-27  0.330E-27
  2.053  0.681E-27  0.681E-27
  2.063  0.139E-26  0.139E-26
  2.073  0.281E-26  0.281E-26
  2.083  0.562E-26  0.562E-26
  2.093  0.288E-15  0.288E-15
  2.103  0.601E-15  0.601E-15
  2.113  0.124E-14  0.124E-14
  2.123  0.254E-14  0.254E-14
  2.133  0.514E-14  0.514E-14
  2.143  0.103E-13  0.103E-13
  2.153  0.213E-13  0.213E-13
  2.163  0.419E-13  0.419E-13
  2.173  0.815E-13  0.815E-13
  2.183  0.157E-12  0.157E-12
  2.193  0.298E-12  0.298E-12
  2.203  0.562E-12  0.562E-12
  2.213  0.105E-11  0.105E-11
  2.223  0.193E-11  0.193E-11
  2.233  0.353E-11  0.353E-11
  2.243  0.637E-11  0.637E-11
  2.253  0.114E-10  0.114E-10
  2.263  0.201E-10  0.201E-10
  2.273  0.353E-10  0.353E-10
  2.283  0.611E-10  0.611E-10
  2.293  0.105E-09  0.105E-09
  2.303  0.178E-09  0.178E-09
  2.313  0.298E-09  0.298E-09
  2.323  0.496E-09  0.496E-09
  2.333  0.816E-09  0.816E-09
  2.343  0.133E-08  0.133E-08
  2.353  0.214E-08  0.214E-08
  2.363  0.342E-08  0.342E-08
  2.373  0.540E-08  0.540E-08
  2.383  0.845E-08  0.845E-08
  2.393  0.131E-07  0.131E-07
  2.403  0.200E-07  0.200E-07
  2.413  0.304E-07  0.304E-07
  2.423  0.457E-07  0.457E-07
  2.433  0.681E-07  0.681E-07
  2.443  0.100E-06  0.100E-06
  2.453  0.146E-06  0.146E-06
  2.463  0.212E-06  0.212E-06
  2.473  0.303E-06  0.303E-06
  2.483  0.429E-06  0.429E-06
  2.493  0.603E-06  0.603E-06
  2.503  0.838E-06  0.838E-06
  2.513  0.115E-05  0.115E-05
  2.523  0.158E-05  0.158E-05
  2.533  0.213E-05  0.213E-05
  2.543  0.286E-05  0.286E-05
  2.553  0.379E-05  0.379E-05
  2.563  0.499E-05  0.499E-05
  2.573  0.651E-05  0.651E-05
  2.583  0.841E-05  0.841E-05
  2.593  0.108E-04  0.108E-04
  2.603  0.137E-04  0.137E-04
  2.613  0.172E-04  0.172E-04
  2.623  0.215E-04  0.215E-04
  2.633  0.266E-04  0.266E-04
  2.643  0.327E-04  0.327E-04
  2.653  0.398E-04  0.398E-04
  2.663  0.481E-04  0.481E-04
  2.673  0.577E-04  0.577E-04
  2.683  0.686E-04  0.686E-04
  2.693  0.810E-04  0.810E-04
  2.703  0.950E-04  0.950E-04
  2.713  0.111E-03  0.111E-03
  2.723  0.128E-03  0.128E-03
  2.733  0.147E-03  0.147E-03
  2.743  0.168E-03  0.168E-03
  2.753  0.191E-03  0.191E-03
  2.763  0.216E-03  0.216E-03
  2.773  0.243E-03  0.243E-03
  2.783  0.272E-03  0.272E-03
  2.793  0.303E-03  0.303E-03
  2.803  0.337E-03  0.337E-03
  2.813  0.373E-03  0.373E-03
  2.823  0.413E-03  0.413E-03
  2.833  0.455E-03  0.455E-03
  2.843  0.500E-03  0.500E-03
  2.853  0.548E-03  0.548E-03
  2.863  0.600E-03  0.600E-03
  2.873  0.655E-03  0.655E-03
  2.883  0.714E-03  0.714E-03
  2.893  0.776E-03  0.776E-03
  2.903  0.842E-03  0.842E-03
  2.913  0.911E-03  0.911E-03
  2.923  0.982E-03  0.982E-03
  2.933  0.106E-02  0.106E-02
  2.943  0.113E-02  0.113E-02
  2.953  0.121E-02  0.121E-02
  2.963  0.129E-02  0.129E-02
  2.973  0.136E-02  0.136E-02
  2.983  0.144E-02  0.144E-02
  2.993  0.151E-02  0.151E-02
  3.003  0.158E-02  0.158E-02
  3.013  0.165E-02  0.165E-02
  3.023  0.172E-02  0.172E-02
  3.033  0.178E-02  0.178E-02
  3.043  0.184E-02  0.184E-02
  3.053  0.190E-02  0.190E-02
  3.063  0.196E-02  0.196E-02
  3.073  0.203E-02  0.203E-02
  3.083  0.209E-02  0.209E-02
  3.093  0.216E-02  0.216E-02
  3.103  0.223E-02  0.223E-02
  3.113  0.231E-02  0.231E-02
  3.123  0.240E-02  0.240E-02
  3.133  0.250E-02  0.250E-02
  3.143  0.261E-02  0.261E-02
  3.153  0.273E-02  0.273E-02
  3.163  0.286E-02  0.286E-02
  3.173  0.300E-02  0.300E-02
  3.183  0.314E-02  0.314E-02
  3.193  0.329E-02  0.329E-02
  3.203  0.345E-02  0.345E-02
  3.213  0.361E-02  0.361E-02
  3.223  0.376E-02  0.376E-02
  3.233  0.392E-02  0.392E-02
  3.243  0.407E-02  0.407E-02
  3.253  0.421E-02  0.421E-02
  3.263  0.435E-02  0.435E-02
  3.273  0.447E-02  0.447E-02
  3.283  0.459E-02  0.459E-02
  3.293  0.470E-02  0.470E-02
  3.303  0.481E-02  0.481E-02
  3.313  0.490E-02  0.490E-02
  3.323  0.500E-02  0.500E-02
  3.333  0.509E-02  0.509E-02
  3.343  0.517E-02  0.517E-02
  3.353  0.526E-02  0.526E-02
  3.363  0.536E-02  0.536E-02
  3.373  0.546E-02  0.546E-02
  3.383  0.556E-02  0.556E-02
  3.393  0.567E-02  0.567E-02
  3.403  0.579E-02  0.579E-02
  3.413  0.591E-02  0.591E-02
  3.423  0.604E-02  0.604E-02
  3.433  0.618E-02  0.618E-02
  3.443  0.632E-02  0.632E-02
  3.453  0.647E-02  0.647E-02
  3.463  0.661E-02  0.661E-02
  3.473  0.676E-02  0.676E-02
  3.483  0.691E-02  0.691E-02
  3.493  0.705E-02  0.705E-02
  3.503  0.720E-02  0.720E-02
  3.513  0.735E-02  0.735E-02
  3.523  0.751E-02  0.751E-02
  3.533  0.767E-02  0.767E-02
  3.543  0.783E-02  0.783E-02
  3.553  0.801E-02  0.801E-02
  3.563  0.821E-02  0.821E-02
  3.573  0.841E-02  0.841E-02
  3.583  0.864E-02  0.864E-02
  3.593  0.888E-02  0.888E-02
  3.603  0.915E-02  0.915E-02
  3.613  0.943E-02  0.943E-02
  3.623  0.973E-02  0.973E-02
  3.633  0.100E-01  0.100E-01
  3.643  0.104E-01  0.104E-01
  3.653  0.107E-01  0.107E-01
  3.663  0.110E-01  0.110E-01
  3.673  0.114E-01  0.114E-01
  3.683  0.117E-01  0.117E-01
  3.693  0.121E-01  0.121E-01
  3.703  0.124E-01  0.124E-01
  3.713  0.127E-01  0.127E-01
  3.723  0.130E-01  0.130E-01
  3.733  0.133E-01  0.133E-01
  3.743  0.136E-01  0.136E-01
  3.753  0.139E-01  0.139E-01
  3.763  0.141E-01  0.141E-01
  3.773  0.144E-01  0.144E-01
  3.783  0.146E-01  0.146E-01
  3.793  0.149E-01  0.149E-01
  3.803  0.151E-01  0.151E-01
  3.813  0.153E-01  0.153E-01
  3.823  0.155E-01  0.155E-01
  3.833  0.157E-01  0.157E-01
  3.843  0.159E-01  0.159E-01
  3.853  0.162E-01  0.162E-01
  3.863  0.164E-01  0.164E-01
  3.873  0.167E-01  0.167E-01
  3.883  0.170E-01  0.170E-01
  3.893  0.174E-01  0.174E-01
  3.903  0.178E-01  0.178E-01
  3.913  0.182E-01  0.182E-01
  3.923  0.188E-01  0.188E-01
  3.933  0.193E-01  0.193E-01
  3.943  0.200E-01  0.200E-01
  3.953  0.207E-01  0.207E-01
  3.963  0.214E-01  0.214E-01
  3.973  0.222E-01  0.222E-01
  3.983  0.231E-01  0.231E-01
  3.993  0.240E-01  0.240E-01
  4.003  0.249E-01  0.249E-01
  4.013  0.258E-01  0.258E-01
  4.023  0.267E-01  0.267E-01
  4.033  0.276E-01  0.276E-01
  4.043  0.285E-01  0.285E-01
  4.053  0.293E-01  0.293E-01
  4.063  0.301E-01  0.301E-01
  4.073  0.309E-01  0.309E-01
  4.083  0.316E-01  0.316E-01
  4.093  0.324E-01  0.324E-01
  4.103  0.331E-01  0.331E-01
  4.113  0.337E-01  0.337E-01
  4.123  0.344E-01  0.344E-01
  4.133  0.351E-01  0.351E-01
  4.143  0.358E-01  0.358E-01
  4.153  0.365E-01  0.365E-01
  4.163  0.373E-01  0.373E-01
  4.173  0.381E-01  0.381E-01
  4.183  0.389E-01  0.389E-01
  4.193  0.398E-01  0.398E-01
  4.203  0.408E-01  0.408E-01
  4.213  0.418E-01  0.418E-01
  4.223  0.428E-01  0.428E-01
  4.233  0.439E-01  0.439E-01
  4.243  0.451E-01  0.451E-01
  4.253  0.462E-01  0.462E-01
  4.263  0.474E-01  0.474E-01
  4.273  0.486E-01  0.486E-01
  4.283  0.498E-01  0.498E-01
  4.293  0.510E-01  0.510E-01
  4.303  0.522E-01  0.522E-01
  4.313  0.534E-01  0.534E-01
  4.323  0.545E-01  0.545E-01
  4.333  0.556E-01  0.556E-01
  4.343  0.567E-01  0.567E-01
  4.353  0.577E-01  0.577E-01
  4.363  0.587E-01  0.587E-01
  4.373  0.596E-01  0.596E-01
  4.383  0.604E-01  0.604E-01
  4.393  0.612E-01  0.612E-01
  4.403  0.619E-01  0.619E-01
  4.413  0.626E-01  0.626E-01
  4.423  0.632E-01  0.632E-01
  4.433  0.638E-01  0.638E-01
  4.443  0.644E-01  0.644E-01
  4.453  0.650E-01  0.650E-01
  4.463  0.655E-01  0.655E-01
  4.473  0.661E-01  0.661E-01
  4.483  0.667E-01  0.667E-01
  4.493  0.674E-01  0.674E-01
  4.503  0.681E-01  0.681E-01
  4.513  0.689E-01  0.689E-01
  4.523  0.697E-01  0.697E-01
  4.533  0.706E-01  0.706E-01
  4.543  0.715E-01  0.715E-01
  4.553  0.724E-01  0.724E-01
  4.563  0.733E-01  0.733E-01
  4.573  0.742E-01  0.742E-01
  4.583  0.750E-01  0.750E-01
  4.593  0.758E-01  0.758E-01
  4.603  0.765E-01  0.765E-01
  4.613  0.770E-01  0.770E-01
  4.623  0.774E-01  0.774E-01
  4.633  0.776E-01  0.776E-01
  4.643  0.777E-01  0.777E-01
  4.653  0.776E-01  0.776E-01
  4.663  0.773E-01  0.773E-01
  4.673  0.769E-01  0.769E-01
  4.683  0.763E-01  0.763E-01
  4.693  0.755E-01  0.755E-01
  4.703  0.747E-01  0.747E-01
  4.713  0.738E-01  0.738E-01
  4.723  0.728E-01  0.728E-01
  4.733  0.718E-01  0.718E-01
  4.743  0.708E-01  0.708E-01
  4.753  0.698E-01  0.698E-01
  4.763  0.688E-01  0.688E-01
  4.773  0.680E-01  0.680E-01
  4.783  0.671E-01  0.671E-01
  4.793  0.664E-01  0.664E-01
  4.803  0.657E-01  0.657E-01
  4.813  0.652E-01  0.652E-01
  4.823  0.647E-01  0.647E-01
  4.833  0.642E-01  0.642E-01
  4.843  0.638E-01  0.638E-01
  4.853  0.634E-01  0.634E-01
  4.863  0.631E-01  0.631E-01
  4.873  0.628E-01  0.628E-01
  4.883  0.625E-01  0.625E-01
  4.893  0.622E-01  0.622E-01
  4.903  0.618E-01  0.618E-01
  4.913  0.614E-01  0.614E-01
  4.923  0.610E-01  0.610E-01
  4.933  0.606E-01  0.606E-01
  4.943  0.602E-01  0.602E-01
  4.953  0.597E-01  0.597E-01
  4.963  0.592E-01  0.592E-01
  4.973  0.586E-01  0.586E-01
  4.983  0.581E-01  0.581E-01
  4.993  0.575E-01  0.575E-01
  5.003  0.568E-01  0.568E-01
  5.013  0.562E-01  0.562E-01
  5.023  0.555E-01  0.555E-01
  5.033  0.548E-01  0.548E-01
  5.043  0.541E-01  0.541E-01
  5.053  0.533E-01  0.533E-01
  5.063  0.526E-01  0.526E-01
  5.073  0.518E-01  0.518E-01
  5.083  0.510E-01  0.510E-01
  5.093  0.503E-01  0.503E-01
  5.103  0.495E-01  0.495E-01
  5.113  0.489E-01  0.489E-01
  5.123  0.482E-01  0.482E-01
  5.133  0.477E-01  0.477E-01
  5.143  0.473E-01  0.473E-01
  5.153  0.470E-01  0.470E-01
  5.163  0.469E-01  0.469E-01
  5.173  0.469E-01  0.469E-01
  5.183  0.471E-01  0.471E-01
  5.193  0.473E-01  0.473E-01
  5.203  0.478E-01  0.478E-01
  5.213  0.483E-01  0.483E-01
  5.223  0.489E-01  0.489E-01
  5.233  0.496E-01  0.496E-01
  5.243  0.503E-01  0.503E-01
  5.253  0.510E-01  0.510E-01
  5.263  0.516E-01  0.516E-01
  5.273  0.521E-01  0.521E-01
  5.283  0.525E-01  0.525E-01
  5.293  0.528E-01  0.528E-01
  5.303  0.529E-01  0.529E-01
  5.313  0.529E-01  0.529E-01
  5.323  0.527E-01  0.527E-01
  5.333  0.523E-01  0.523E-01
  5.343  0.518E-01  0.518E-01
  5.353  0.512E-01  0.512E-01
  5.363  0.505E-01  0.505E-01
  5.373  0.497E-01  0.497E-01
  5.383  0.488E-01  0.488E-01
  5.393  0.479E-01  0.479E-01
  5.403  0.471E-01  0.471E-01
  5.413  0.462E-01  0.462E-01
  5.423  0.454E-01  0.454E-01
  5.433  0.447E-01  0.447E-01
  5.443  0.440E-01  0.440E-01
  5.453  0.435E-01  0.435E-01
  5.463  0.430E-01  0.430E-01
  5.473  0.425E-01  0.425E-01
  5.483  0.422E-01  0.422E-01
  5.493  0.419E-01  0.419E-01
  5.503  0.416E-01  0.416E-01
  5.513  0.415E-01  0.415E-01
  5.523  0.413E-01  0.413E-01
  5.533  0.412E-01  0.412E-01
  5.543  0.411E-01  0.411E-01
  5.553  0.410E-01  0.410E-01
  5.563  0.409E-01  0.409E-01
  5.573  0.409E-01  0.409E-01
  5.583  0.409E-01  0.409E-01
  5.593  0.410E-01  0.410E-01
  5.603  0.410E-01  0.410E-01
  5.613  0.412E-01  0.412E-01
  5.623  0.414E-01  0.414E-01
  5.633  0.417E-01  0.417E-01
  5.643  0.421E-01  0.421E-01
  5.653  0.425E-01  0.425E-01
  5.663  0.431E-01  0.431E-01
  5.673  0.437E-01  0.437E-01
  5.683  0.443E-01  0.443E-01
  5.693  0.450E-01  0.450E-01
  5.703  0.457E-01  0.457E-01
  5.713  0.464E-01  0.464E-01
  5.723  0.470E-01  0.470E-01
  5.733  0.475E-01  0.475E-01
  5.743  0.480E-01  0.480E-01
  5.753  0.483E-01  0.483E-01
  5.763  0.485E-01  0.485E-01
  5.773  0.485E-01  0.485E-01
  5.783  0.483E-01  0.483E-01
  5.793  0.479E-01  0.479E-01
  5.803  0.474E-01  0.474E-01
  5.813  0.467E-01  0.467E-01
  5.823  0.458E-01  0.458E-01
  5.833  0.448E-01  0.448E-01
  5.843  0.437E-01  0.437E-01
  5.853  0.426E-01  0.426E-01
  5.863  0.414E-01  0.414E-01
  5.873  0.403E-01  0.403E-01
  5.883  0.392E-01  0.392E-01
  5.893  0.381E-01  0.381E-01
  5.903  0.373E-01  0.373E-01
  5.913  0.365E-01  0.365E-01
  5.923  0.359E-01  0.359E-01
  5.933  0.355E-01  0.355E-01
  5.943  0.352E-01  0.352E-01
  5.953  0.351E-01  0.351E-01
  5.963  0.352E-01  0.352E-01
  5.973  0.354E-01  0.354E-01
  5.983  0.357E-01  0.357E-01
  5.993  0.361E-01  0.361E-01
  6.003  0.366E-01  0.366E-01
  6.013  0.371E-01  0.371E-01
  6.023  0.376E-01  0.376E-01
  6.033  0.382E-01  0.382E-01
  6.043  0.387E-01  0.387E-01
  6.053  0.391E-01  0.391E-01
  6.063  0.395E-01  0.395E-01
  6.073  0.398E-01  0.398E-01
  6.083  0.400E-01  0.400E-01
  6.093  0.401E-01  0.401E-01
  6.103  0.402E-01  0.402E-01
  6.113  0.401E-01  0.401E-01
  6.123  0.399E-01  0.399E-01
  6.133  0.396E-01  0.396E-01
  6.143  0.393E-01  0.393E-01
  6.153  0.389E-01  0.389E-01
  6.163  0.385E-01  0.385E-01
  6.173  0.380E-01  0.380E-01
  6.183  0.376E-01  0.376E-01
  6.193  0.372E-01  0.372E-01
  6.203  0.369E-01  0.369E-01
  6.213  0.366E-01  0.366E-01
  6.223  0.364E-01  0.364E-01
  6.233  0.363E-01  0.363E-01
  6.243  0.364E-01  0.364E-01
  6.253  0.365E-01  0.365E-01
  6.263  0.368E-01  0.368E-01
  6.273  0.372E-01  0.372E-01
  6.283  0.377E-01  0.377E-01
  6.293  0.383E-01  0.383E-01
  6.303  0.390E-01  0.390E-01
  6.313  0.397E-01  0.397E-01
  6.323  0.405E-01  0.405E-01
  6.333  0.412E-01  0.412E-01
  6.343  0.419E-01  0.419E-01
  6.353  0.425E-01  0.425E-01
  6.363  0.431E-01  0.431E-01
  6.373  0.434E-01  0.434E-01
  6.383  0.437E-01  0.437E-01
  6.393  0.437E-01  0.437E-01
  6.403  0.436E-01  0.436E-01
  6.413  0.433E-01  0.433E-01
  6.423  0.427E-01  0.427E-01
  6.433  0.420E-01  0.420E-01
  6.443  0.412E-01  0.412E-01
  6.453  0.401E-01  0.401E-01
  6.463  0.390E-01  0.390E-01
  6.473  0.377E-01  0.377E-01
  6.483  0.364E-01  0.364E-01
  6.493  0.351E-01  0.351E-01
  6.503  0.338E-01  0.338E-01
  6.513  0.325E-01  0.325E-01
  6.523  0.314E-01  0.314E-01
  6.533  0.303E-01  0.303E-01
  6.543  0.293E-01  0.293E-01
  6.553  0.286E-01  0.286E-01
  6.563  0.280E-01  0.280E-01
  6.573  0.276E-01  0.276E-01
  6.583  0.274E-01  0.274E-01
  6.593  0.274E-01  0.274E-01
  6.603  0.275E-01  0.275E-01
  6.613  0.279E-01  0.279E-01
  6.623  0.284E-01  0.284E-01
  6.633  0.290E-01  0.290E-01
  6.643  0.297E-01  0.297E-01
  6.653  0.306E-01  0.306E-01
  6.663  0.314E-01  0.314E-01
  6.673  0.323E-01  0.323E-01
  6.683  0.331E-01  0.331E-01
  6.693  0.339E-01  0.339E-01
  6.703  0.347E-01  0.347E-01
  6.713  0.353E-01  0.353E-01
  6.723  0.358E-01  0.358E-01
  6.733  0.362E-01  0.362E-01
  6.743  0.364E-01  0.364E-01
  6.753  0.365E-01  0.365E-01
  6.763  0.365E-01  0.365E-01
  6.773  0.364E-01  0.364E-01
  6.783  0.362E-01  0.362E-01
  6.793  0.360E-01  0.360E-01
  6.803  0.356E-01  0.356E-01
  6.813  0.353E-01  0.353E-01
  6.823  0.350E-01  0.350E-01
  6.833  0.347E-01  0.347E-01
  6.843  0.344E-01  0.344E-01
  6.853  0.342E-01  0.342E-01
  6.863  0.341E-01  0.341E-01
  6.873  0.341E-01  0.341E-01
  6.883  0.342E-01  0.342E-01
  6.893  0.343E-01  0.343E-01
  6.903  0.345E-01  0.345E-01
  6.913  0.348E-01  0.348E-01
  6.923  0.351E-01  0.351E-01
  6.933  0.355E-01  0.355E-01
  6.943  0.358E-01  0.358E-01
  6.953  0.361E-01  0.361E-01
  6.963  0.364E-01  0.364E-01
  6.973  0.367E-01  0.367E-01
  6.983  0.369E-01  0.369E-01
  6.993  0.371E-01  0.371E-01
  7.003  0.371E-01  0.371E-01
  7.013  0.371E-01  0.371E-01
  7.023  0.370E-01  0.370E-01
  7.033  0.368E-01  0.368E-01
  7.043  0.366E-01  0.366E-01
  7.053  0.362E-01  0.362E-01
  7.063  0.358E-01  0.358E-01
  7.073  0.353E-01  0.353E-01
  7.083  0.348E-01  0.348E-01
  7.093  0.341E-01  0.341E-01
  7.103  0.334E-01  0.334E-01
  7.113  0.327E-01  0.327E-01
  7.123  0.319E-01  0.319E-01
  7.133  0.311E-01  0.311E-01
  7.143  0.302E-01  0.302E-01
  7.153  0.293E-01  0.293E-01
  7.163  0.284E-01  0.284E-01
  7.173  0.276E-01  0.276E-01
  7.183  0.267E-01  0.267E-01
  7.193  0.259E-01  0.259E-01
  7.203  0.251E-01  0.251E-01
  7.213  0.244E-01  0.244E-01
  7.223  0.238E-01  0.238E-01
  7.233  0.233E-01  0.233E-01
  7.243  0.230E-01  0.230E-01
  7.253  0.227E-01  0.227E-01
  7.263  0.225E-01  0.225E-01
  7.273  0.225E-01  0.225E-01
  7.283  0.227E-01  0.227E-01
  7.293  0.229E-01  0.229E-01
  7.303  0.232E-01  0.232E-01
  7.313  0.237E-01  0.237E-01
  7.323  0.243E-01  0.243E-01
  7.333  0.249E-01  0.249E-01
  7.343  0.256E-01  0.256E-01
  7.353  0.264E-01  0.264E-01
  7.363  0.272E-01  0.272E-01
  7.373  0.280E-01  0.280E-01
  7.383  0.288E-01  0.288E-01
  7.393  0.296E-01  0.296E-01
  7.403  0.304E-01  0.304E-01
  7.413  0.311E-01  0.311E-01
  7.423  0.318E-01  0.318E-01
  7.433  0.324E-01  0.324E-01
  7.443  0.329E-01  0.329E-01
  7.453  0.333E-01  0.333E-01
  7.463  0.337E-01  0.337E-01
  7.473  0.340E-01  0.340E-01
  7.483  0.341E-01  0.341E-01
  7.493  0.342E-01  0.342E-01
  7.503  0.342E-01  0.342E-01
  7.513  0.342E-01  0.342E-01
  7.523  0.340E-01  0.340E-01
  7.533  0.339E-01  0.339E-01
  7.543  0.336E-01  0.336E-01
  7.553  0.333E-01  0.333E-01
  7.563  0.330E-01  0.330E-01
  7.573  0.327E-01  0.327E-01
  7.583  0.323E-01  0.323E-01
  7.593  0.320E-01  0.320E-01
  7.603  0.316E-01  0.316E-01
  7.613  0.313E-01  0.313E-01
  7.623  0.310E-01  0.310E-01
  7.633  0.307E-01  0.307E-01
  7.643  0.303E-01  0.303E-01
  7.653  0.300E-01  0.300E-01
  7.663  0.297E-01  0.297E-01
  7.673  0.294E-01  0.294E-01
  7.683  0.291E-01  0.291E-01
  7.693  0.288E-01  0.288E-01
  7.703  0.284E-01  0.284E-01
  7.713  0.281E-01  0.281E-01
  7.723  0.277E-01  0.277E-01
  7.733  0.273E-01  0.273E-01
  7.743  0.269E-01  0.269E-01
  7.753  0.264E-01  0.264E-01
  7.763  0.260E-01  0.260E-01
  7.773  0.255E-01  0.255E-01
  7.783  0.250E-01  0.250E-01
  7.793  0.245E-01  0.245E-01
  7.803  0.240E-01  0.240E-01
  7.813  0.235E-01  0.235E-01
  7.823  0.230E-01  0.230E-01
  7.833  0.226E-01  0.226E-01
  7.843  0.221E-01  0.221E-01
  7.853  0.218E-01  0.218E-01
  7.863  0.215E-01  0.215E-01
  7.873  0.212E-01  0.212E-01
  7.883  0.210E-01  0.210E-01
  7.893  0.209E-01  0.209E-01
  7.903  0.208E-01  0.208E-01
  7.913  0.208E-01  0.208E-01
  7.923  0.208E-01  0.208E-01
  7.933  0.209E-01  0.209E-01
  7.943  0.210E-01  0.210E-01
  7.953  0.211E-01  0.211E-01
  7.963  0.213E-01  0.213E-01
  7.973  0.215E-01  0.215E-01
  7.983  0.217E-01  0.217E-01
  7.993  0.219E-01  0.219E-01
  8.003  0.221E-01  0.221E-01
  8.013  0.223E-01  0.223E-01
  8.023  0.225E-01  0.225E-01
  8.033  0.227E-01  0.227E-01
  8.043  0.229E-01  0.229E-01
  8.053  0.231E-01  0.231E-01
  8.063  0.233E-01  0.233E-01
  8.073  0.235E-01  0.235E-01
  8.083  0.237E-01  0.237E-01
  8.093  0.240E-01  0.240E-01
  8.103  0.242E-01  0.242E-01
  8.113  0.245E-01  0.245E-01
  8.123  0.248E-01  0.248E-01
  8.133  0.251E-01  0.251E-01
  8.143  0.255E-01  0.255E-01
  8.153  0.258E-01  0.258E-01
  8.163  0.261E-01  0.261E-01
  8.173  0.265E-01  0.265E-01
  8.183  0.268E-01  0.268E-01
  8.193  0.271E-01  0.271E-01
  8.203  0.273E-01  0.273E-01
  8.213  0.276E-01  0.276E-01
  8.223  0.277E-01  0.277E-01
  8.233  0.278E-01  0.278E-01
  8.243  0.279E-01  0.279E-01
  8.253  0.278E-01  0.278E-01
  8.263  0.277E-01  0.277E-01
  8.273  0.276E-01  0.276E-01
  8.283  0.273E-01  0.273E-01
  8.293  0.270E-01  0.270E-01
  8.303  0.267E-01  0.267E-01
  8.313  0.263E-01  0.263E-01
  8.323  0.258E-01  0.258E-01
  8.333  0.254E-01  0.254E-01
  8.343  0.249E-01  0.249E-01
  8.353  0.244E-01  0.244E-01
  8.363  0.239E-01  0.239E-01
  8.373  0.234E-01  0.234E-01
  8.383  0.228E-01  0.228E-01
  8.393  0.223E-01  0.223E-01
  8.403  0.219E-01  0.219E-01
  8.413  0.214E-01  0.214E-01
  8.423  0.209E-01  0.209E-01
  8.433  0.204E-01  0.204E-01
  8.443  0.200E-01  0.200E-01
  8.453  0.195E-01  0.195E-01
  8.463  0.190E-01  0.190E-01
  8.473  0.186E-01  0.186E-01
  8.483  0.181E-01  0.181E-01
  8.493  0.177E-01  0.177E-01
  8.503  0.172E-01  0.172E-01
  8.513  0.168E-01  0.168E-01
  8.523  0.164E-01  0.164E-01
  8.533  0.160E-01  0.160E-01
  8.543  0.156E-01  0.156E-01
  8.553  0.153E-01  0.153E-01
  8.563  0.150E-01  0.150E-01
  8.573  0.148E-01  0.148E-01
  8.583  0.147E-01  0.147E-01
  8.593  0.146E-01  0.146E-01
  8.603  0.147E-01  0.147E-01
  8.613  0.148E-01  0.148E-01
  8.623  0.150E-01  0.150E-01
  8.633  0.153E-01  0.153E-01
  8.643  0.157E-01  0.157E-01
  8.653  0.162E-01  0.162E-01
  8.663  0.167E-01  0.167E-01
  8.673  0.172E-01  0.172E-01
  8.683  0.178E-01  0.178E-01
  8.693  0.184E-01  0.184E-01
  8.703  0.189E-01  0.189E-01
  8.713  0.194E-01  0.194E-01
  8.723  0.199E-01  0.199E-01
  8.733  0.203E-01  0.203E-01
  8.743  0.207E-01  0.207E-01
  8.753  0.209E-01  0.209E-01
  8.763  0.211E-01  0.211E-01
  8.773  0.211E-01  0.211E-01
  8.783  0.211E-01  0.211E-01
  8.793  0.210E-01  0.210E-01
  8.803  0.208E-01  0.208E-01
  8.813  0.206E-01  0.206E-01
  8.823  0.203E-01  0.203E-01
  8.833  0.199E-01  0.199E-01
  8.843  0.196E-01  0.196E-01
  8.853  0.192E-01  0.192E-01
  8.863  0.188E-01  0.188E-01
  8.873  0.185E-01  0.185E-01
  8.883  0.182E-01  0.182E-01
  8.893  0.180E-01  0.180E-01
  8.903  0.177E-01  0.177E-01
  8.913  0.176E-01  0.176E-01
  8.923  0.175E-01  0.175E-01
  8.933  0.174E-01  0.174E-01
  8.943  0.174E-01  0.174E-01
  8.953  0.174E-01  0.174E-01
  8.963  0.174E-01  0.174E-01
  8.973  0.174E-01  0.174E-01
  8.983  0.175E-01  0.175E-01
  8.993  0.175E-01  0.175E-01
  9.003  0.175E-01  0.175E-01
  9.013  0.175E-01  0.175E-01
  9.023  0.174E-01  0.174E-01
  9.033  0.173E-01  0.173E-01
  9.043  0.172E-01  0.172E-01
  9.053  0.170E-01  0.170E-01
  9.063  0.168E-01  0.168E-01
  9.073  0.165E-01  0.165E-01
  9.083  0.162E-01  0.162E-01
  9.093  0.159E-01  0.159E-01
  9.103  0.156E-01  0.156E-01
  9.113  0.153E-01  0.153E-01
  9.123  0.149E-01  0.149E-01
  9.133  0.146E-01  0.146E-01
  9.143  0.143E-01  0.143E-01
  9.153  0.139E-01  0.139E-01
  9.163  0.136E-01  0.136E-01
  9.173  0.133E-01  0.133E-01
  9.183  0.131E-01  0.131E-01
  9.193  0.128E-01  0.128E-01
  9.203  0.126E-01  0.126E-01
  9.213  0.124E-01  0.124E-01
  9.223  0.122E-01  0.122E-01
  9.233  0.121E-01  0.121E-01
  9.243  0.119E-01  0.119E-01
  9.253  0.118E-01  0.118E-01
  9.263  0.117E-01  0.117E-01
  9.273  0.117E-01  0.117E-01
  9.283  0.116E-01  0.116E-01
  9.293  0.116E-01  0.116E-01
  9.303  0.116E-01  0.116E-01
  9.313  0.116E-01  0.116E-01
  9.323  0.116E-01  0.116E-01
  9.333  0.116E-01  0.116E-01
  9.343  0.117E-01  0.117E-01
  9.353  0.117E-01  0.117E-01
  9.363  0.118E-01  0.118E-01
  9.373  0.118E-01  0.118E-01
  9.383  0.119E-01  0.119E-01
  9.393  0.119E-01  0.119E-01
  9.403  0.120E-01  0.120E-01
  9.413  0.120E-01  0.120E-01
  9.423  0.121E-01  0.121E-01
  9.433  0.121E-01  0.121E-01
  9.443  0.121E-01  0.121E-01
  9.453  0.121E-01  0.121E-01
  9.463  0.120E-01  0.120E-01
  9.473  0.120E-01  0.120E-01
  9.483  0.119E-01  0.119E-01
  9.493  0.118E-01  0.118E-01
  9.503  0.117E-01  0.117E-01
  9.513  0.116E-01  0.116E-01
  9.523  0.114E-01  0.114E-01
  9.533  0.113E-01  0.113E-01
  9.543  0.111E-01  0.111E-01
  9.553  0.110E-01  0.110E-01
  9.563  0.108E-01  0.108E-01
  9.573  0.107E-01  0.107E-01
  9.583  0.105E-01  0.105E-01
  9.593  0.104E-01  0.104E-01
  9.603  0.103E-01  0.103E-01
  9.613  0.103E-01  0.103E-01
  9.623  0.102E-01  0.102E-01
  9.633  0.101E-01  0.101E-01
  9.643  0.101E-01  0.101E-01
  9.653  0.101E-01  0.101E-01
  9.663  0.101E-01  0.101E-01
  9.673  0.100E-01  0.100E-01
  9.683  0.100E-01  0.100E-01
  9.693  0.996E-02  0.996E-02
  9.703  0.991E-02  0.991E-02
  9.713  0.983E-02  0.983E-02
  9.723  0.974E-02  0.974E-02
  9.733  0.961E-02  0.961E-02
  9.743  0.947E-02  0.947E-02
  9.753  0.930E-02  0.930E-02
  9.763  0.910E-02  0.910E-02
  9.773  0.889E-02  0.889E-02
  9.783  0.866E-02  0.866E-02
  9.793  0.841E-02  0.841E-02
  9.803  0.815E-02  0.815E-02
  9.813  0.789E-02  0.789E-02
  9.823  0.762E-02  0.762E-02
  9.833  0.735E-02  0.735E-02
  9.843  0.710E-02  0.710E-02
  9.853  0.685E-02  0.685E-02
  9.863  0.661E-02  0.661E-02
  9.873  0.638E-02  0.638E-02
  9.883  0.617E-02  0.617E-02
  9.893  0.598E-02  0.598E-02
  9.903  0.580E-02  0.580E-02
  9.913  0.564E-02  0.564E-02
  9.923  0.549E-02  0.549E-02
  9.933  0.536E-02  0.536E-02
  9.943  0.525E-02  0.525E-02
  9.953  0.515E-02  0.515E-02
  9.963  0.507E-02  0.507E-02
  9.973  0.500E-02  0.500E-02
  9.983  0.494E-02  0.494E-02
  9.993  0.489E-02  0.489E-02
 10.003  0.485E-02  0.485E-02
 10.013  0.482E-02  0.482E-02
 10.023  0.479E-02  0.479E-02
 10.033  0.477E-02  0.477E-02
 10.043  0.475E-02  0.475E-02
 10.053  0.474E-02  0.474E-02
 10.063  0.472E-02  0.472E-02
 10.073  0.471E-02  0.471E-02
 10.083  0.469E-02  0.469E-02
 10.093  0.467E-02  0.467E-02
 10.103  0.465E-02  0.465E-02
 10.113  0.463E-02  0.463E-02
 10.123  0.461E-02  0.461E-02
 10.133  0.458E-02  0.458E-02
 10.143  0.455E-02  0.455E-02
 10.153  0.451E-02  0.451E-02
 10.163  0.447E-02  0.447E-02
 10.173  0.443E-02  0.443E-02
 10.183  0.439E-02  0.439E-02
 10.193  0.434E-02  0.434E-02
 10.203  0.428E-02  0.428E-02
 10.213  0.422E-02  0.422E-02
 10.223  0.416E-02  0.416E-02
 10.233  0.409E-02  0.409E-02
 10.243  0.401E-02  0.401E-02
 10.253  0.393E-02  0.393E-02
 10.263  0.385E-02  0.385E-02
 10.273  0.376E-02  0.376E-02
 10.283  0.366E-02  0.366E-02
 10.293  0.356E-02  0.356E-02
 10.303  0.346E-02  0.346E-02
 10.313  0.336E-02  0.336E-02
 10.323  0.325E-02  0.325E-02
 10.333  0.314E-02  0.314E-02
 10.343  0.303E-02  0.303E-02
 10.353  0.292E-02  0.292E-02
 10.363  0.281E-02  0.281E-02
 10.373  0.270E-02  0.270E-02
 10.383  0.259E-02  0.259E-02
 10.393  0.248E-02  0.248E-02
 10.403  0.237E-02  0.237E-02
 10.413  0.227E-02  0.227E-02
 10.423  0.216E-02  0.216E-02
 10.433  0.206E-02  0.206E-02
 10.443  0.196E-02  0.196E-02
 10.453  0.186E-02  0.186E-02
 10.463  0.177E-02  0.177E-02
 10.473  0.168E-02  0.168E-02
 10.483  0.159E-02  0.159E-02
 10.493  0.151E-02  0.151E-02
 10.503  0.144E-02  0.144E-02
 10.513  0.137E-02  0.137E-02
 10.523  0.131E-02  0.131E-02
 10.533  0.125E-02  0.125E-02
 10.543  0.120E-02  0.120E-02
 10.553  0.115E-02  0.115E-02
 10.563  0.111E-02  0.111E-02
 10.573  0.107E-02  0.107E-02
 10.583  0.104E-02  0.104E-02
 10.593  0.101E-02  0.101E-02
 10.603  0.983E-03  0.983E-03
 10.613  0.958E-03  0.958E-03
 10.623  0.936E-03  0.936E-03
 10.633  0.913E-03  0.913E-03
 10.643  0.891E-03  0.891E-03
 10.653  0.868E-03  0.868E-03
 10.663  0.844E-03  0.844E-03
 10.673  0.819E-03  0.819E-03
 10.683  0.791E-03  0.791E-03
 10.693  0.761E-03  0.761E-03
 10.703  0.729E-03  0.729E-03
 10.713  0.695E-03  0.695E-03
 10.723  0.659E-03  0.659E-03
 10.733  0.621E-03  0.621E-03
 10.743  0.582E-03  0.582E-03
 10.753  0.542E-03  0.542E-03
 10.763  0.501E-03  0.501E-03
 10.773  0.460E-03  0.460E-03
 10.783  0.419E-03  0.419E-03
 10.793  0.379E-03  0.379E-03
 10.803  0.341E-03  0.341E-03
 10.813  0.304E-03  0.304E-03
 10.823  0.269E-03  0.269E-03
 10.833  0.236E-03  0.236E-03
 10.843  0.206E-03  0.206E-03
 10.853  0.178E-03  0.178E-03
 10.863  0.153E-03  0.153E-03
 10.873  0.130E-03  0.130E-03
 10.883  0.110E-03  0.110E-03
 10.893  0.924E-04  0.924E-04
 10.903  0.768E-04  0.768E-04
 10.913  0.634E-04  0.634E-04
 10.923  0.519E-04  0.519E-04
 10.933  0.421E-04  0.421E-04
 10.943  0.339E-04  0.339E-04
 10.953  0.271E-04  0.271E-04
 10.963  0.215E-04  0.215E-04
 10.973  0.168E-04  0.168E-04
 10.983  0.131E-04  0.131E-04
 10.993  0.101E-04  0.101E-04
 11.003  0.775E-05  0.775E-05
 11.013  0.588E-05  0.588E-05
 11.023  0.443E-05  0.443E-05
 11.033  0.330E-05  0.330E-05
 11.043  0.244E-05  0.244E-05
 11.053  0.179E-05  0.179E-05
 11.063  0.130E-05  0.130E-05
 11.073  0.931E-06  0.931E-06
 11.083  0.664E-06  0.664E-06
 11.093  0.468E-06  0.468E-06
 11.103  0.327E-06  0.327E-06
 11.113  0.227E-06  0.227E-06
 11.123  0.155E-06  0.155E-06
 11.133  0.106E-06  0.106E-06
 11.143  0.710E-07  0.710E-07
 11.153  0.473E-07  0.473E-07
 11.163  0.312E-07  0.312E-07
 11.173  0.204E-07  0.204E-07
 11.183  0.132E-07  0.132E-07
 11.193  0.844E-08  0.844E-08
 11.203  0.535E-08  0.535E-08
 11.213  0.336E-08  0.336E-08
 11.223  0.209E-08  0.209E-08
 11.233  0.128E-08  0.128E-08
 11.243  0.780E-09  0.780E-09
 11.253  0.470E-09  0.470E-09
 11.263  0.280E-09  0.280E-09
 11.273  0.165E-09  0.165E-09
 11.283  0.966E-10  0.966E-10
 11.293  0.558E-10  0.558E-10
 11.303  0.319E-10  0.319E-10
 11.313  0.181E-10  0.181E-10
 11.323  0.101E-10  0.101E-10
 11.333  0.561E-11  0.561E-11
 11.343  0.308E-11  0.308E-11
 11.353  0.167E-11  0.167E-11
 11.363  0.898E-12  0.898E-12
 11.373  0.477E-12  0.477E-12
 11.383  0.250E-12  0.250E-12
 11.393  0.130E-12  0.130E-12
 11.403  0.670E-13  0.670E-13
 11.413  0.339E-13  0.339E-13
 11.423  0.171E-13  0.171E-13
 11.433  0.853E-14  0.853E-14
 11.443  0.421E-14  0.421E-14
 11.453  0.191E-14  0.191E-14
 11.463  0.928E-15  0.928E-15
 11.473  0.445E-15  0.445E-15
 11.483  0.534E-25  0.534E-25
 11.493  0.275E-25  0.275E-25
 11.503  0.140E-25  0.140E-25
 11.513  0.707E-26  0.707E-26
 11.523  0.354E-26  0.354E-26
 11.533  0.150E-26  0.150E-26
 11.543  0.741E-27  0.741E-27
 11.553  0.362E-27  0.362E-27
 11.563  0.175E-27  0.175E-27
 11.573  0.838E-28  0.838E-28
 11.583  0.464E-29  0.464E-29
 11.593  0.223E-29  0.223E-29
 11.603  0.106E-29  0.106E-29
 11.613  0.000E+00  0.000E+00
 11.623  0.000E+00  0.000E+00
 11.633  0.000E+00  0.000E+00
 11.643  0.000E+00  0.000E+00
 11.653  0.000E+00  0.000E+00
 11.663  0.000E+00  0.000E+00
 11.673  0.000E+00  0.000E+00
 11.683  0.000E+00  0.000E+00
 11.693  0.000E+00  0.000E+00
 11.703  0.000E+00  0.000E+00
 11.713  0.000E+00  0.000E+00
 11.723  0.000E+00  0.000E+00
 11.733  0.000E+00  0.000E+00
 11.743  0.000E+00  0.000E+00
 11.753  0.000E+00  0.000E+00
 11.763  0.000E+00  0.000E+00
 11.773  0.000E+00  0.000E+00
 11.783  0.000E+00  0.000E+00
 11.793  0.000E+00  0.000E+00
 11.803  0.000E+00  0.000E+00
 11.813  0.000E+00  0.000E+00
 11.823  0.000E+00  0.000E+00
 11.833  0.000E+00  0.000E+00
 11.843  0.000E+00  0.000E+00
 11.853  0.000E+00  0.000E+00
 11.863  0.000E+00  0.000E+00
 11.873  0.000E+00  0.000E+00
 11.883  0.000E+00  0.000E+00
 11.893  0.000E+00  0.000E+00
 11.903  0.000E+00  0.000E+00
 11.913  0.000E+00  0.000E+00
 11.923  0.000E+00  0.000E+00
 11.933  0.000E+00  0.000E+00
 11.943  0.000E+00  0.000E+00
 11.953  0.000E+00  0.000E+00
 11.963  0.000E+00  0.000E+00
 11.973  0.000E+00  0.000E+00
 11.983  0.000E+00  0.000E+00
 11.993  0.000E+00  0.000E+00
 12.003  0.000E+00  0.000E+00
 12.013  0.000E+00  0.000E+00
 12.023  0.000E+00  0.000E+00
 12.033  0.000E+00  0.000E+00
 12.043  0.000E+00  0.000E+00
 12.053  0.000E+00  0.000E+00
 12.063  0.000E+00  0.000E+00
 12.073  0.000E+00  0.000E+00
 12.083  0.000E+00  0.000E+00
 12.093  0.000E+00  0.000E+00
 12.103  0.000E+00  0.000E+00
 12.113  0.000E+00  0.000E+00
 12.123  0.000E+00  0.000E+00
 12.133  0.000E+00  0.000E+00
 12.143  0.000E+00  0.000E+00
 12.153  0.000E+00  0.000E+00
 12.163  0.000E+00  0.000E+00
 12.173  0.000E+00  0.000E+00
 12.183  0.000E+00  0.000E+00
 12.193  0.000E+00  0.000E+00
 12.203  0.000E+00  0.000E+00
 12.213  0.000E+00  0.000E+00
 12.223  0.000E+00  0.000E+00
 12.233  0.000E+00  0.000E+00
 12.243  0.000E+00  0.000E+00
 12.253  0.000E+00  0.000E+00
 12.263  0.000E+00  0.000E+00
 12.273  0.000E+00  0.000E+00
 12.283  0.000E+00  0.000E+00
 12.293  0.000E+00  0.000E+00
 12.303  0.000E+00  0.000E+00
 12.313  0.000E+00  0.000E+00
 12.323  0.000E+00  0.000E+00
 12.333  0.000E+00  0.000E+00
 12.343  0.000E+00  0.000E+00
 12.353  0.000E+00  0.000E+00
 12.363  0.000E+00  0.000E+00
 12.373  0.000E+00  0.000E+00
 12.383  0.000E+00  0.000E+00
 12.393  0.000E+00  0.000E+00
 12.403  0.000E+00  0.000E+00
 12.413  0.000E+00  0.000E+00
 12.423  0.000E+00  0.000E+00
 12.433  0.000E+00  0.000E+00
 12.443  0.000E+00  0.000E+00
 12.453  0.000E+00  0.000E+00
 12.463  0.000E+00  0.000E+00
 12.473  0.000E+00  0.000E+00
 12.483  0.000E+00  0.000E+00
 12.493  0.000E+00  0.000E+00
 12.503  0.000E+00  0.000E+00
 12.513  0.000E+00  0.000E+00
 12.523  0.000E+00  0.000E+00
 12.533  0.000E+00  0.000E+00
 12.543  0.000E+00  0.000E+00
 12.553  0.000E+00  0.000E+00
 12.563  0.000E+00  0.000E+00
 12.573  0.000E+00  0.000E+00
 12.583  0.000E+00  0.000E+00
 12.593  0.000E+00  0.000E+00
 12.603  0.000E+00  0.000E+00
 12.613  0.000E+00  0.000E+00
 12.623  0.000E+00  0.000E+00
 12.633  0.000E+00  0.000E+00
 12.643  0.000E+00  0.000E+00
 12.653  0.000E+00  0.000E+00
 12.663  0.000E+00  0.000E+00
 12.673  0.000E+00  0.000E+00
 12.683  0.000E+00  0.000E+00
 12.693  0.000E+00  0.000E+00
 12.703  0.000E+00  0.000E+00
 12.713  0.000E+00  0.000E+00
 12.723  0.000E+00  0.000E+00
 12.733  0.000E+00  0.000E+00
 12.743  0.000E+00  0.000E+00
 12.753  0.000E+00  0.000E+00
 12.763  0.000E+00  0.000E+00
 12.773  0.000E+00  0.000E+00
 12.783  0.000E+00  0.000E+00
 12.793  0.000E+00  0.000E+00
 12.803  0.000E+00  0.000E+00
 12.813  0.000E+00  0.000E+00
 12.823  0.000E+00  0.000E+00
 12.833  0.000E+00  0.000E+00
 12.843  0.000E+00  0.000E+00
 12.853  0.000E+00  0.000E+00
 12.863  0.000E+00  0.000E+00
 12.873  0.000E+00  0.000E+00
 12.883  0.000E+00  0.000E+00
 12.893  0.000E+00  0.000E+00
 12.903  0.000E+00  0.000E+00
 12.913  0.000E+00  0.000E+00
 12.923  0.000E+00  0.000E+00
 12.933  0.000E+00  0.000E+00
 12.943  0.000E+00  0.000E+00
 12.953  0.000E+00  0.000E+00
 12.963  0.000E+00  0.000E+00
 12.973  0.000E+00  0.000E+00
 12.983  0.000E+00  0.000E+00
 12.993  0.000E+00  0.000E+00
 13.003  0.000E+00  0.000E+00
 13.013  0.000E+00  0.000E+00
 13.023  0.000E+00  0.000E+00
 13.033  0.000E+00  0.000E+00
 13.043  0.000E+00  0.000E+00
 13.053  0.000E+00  0.000E+00
 13.063  0.000E+00  0.000E+00
 13.073  0.000E+00  0.000E+00
 13.083  0.000E+00  0.000E+00
 13.093  0.000E+00  0.000E+00
 13.103  0.000E+00  0.000E+00
 13.113  0.000E+00  0.000E+00
 13.123  0.000E+00  0.000E+00
 13.133  0.000E+00  0.000E+00
 13.143  0.000E+00  0.000E+00
 13.153  0.000E+00  0.000E+00
 13.163  0.000E+00  0.000E+00
 13.173  0.000E+00  0.000E+00
 13.183  0.000E+00  0.000E+00
 13.193  0.000E+00  0.000E+00
 13.203  0.000E+00  0.000E+00
 13.213  0.000E+00  0.000E+00
 13.223  0.000E+00  0.000E+00
 13.233  0.000E+00  0.000E+00
 13.243  0.000E+00  0.000E+00
 13.253  0.000E+00  0.000E+00
 13.263  0.000E+00  0.000E+00
 13.273  0.000E+00  0.000E+00
 13.283  0.000E+00  0.000E+00
 13.293  0.000E+00  0.000E+00
 13.303  0.000E+00  0.000E+00
 13.313  0.000E+00  0.000E+00
 13.323  0.000E+00  0.000E+00
 13.333  0.000E+00  0.000E+00
 13.343  0.000E+00  0.000E+00
 13.353  0.000E+00  0.000E+00
 13.363  0.000E+00  0.000E+00
 13.373  0.000E+00  0.000E+00
 13.383  0.000E+00  0.000E+00
 13.393  0.000E+00  0.000E+00
 13.403  0.000E+00  0.000E+00
 13.413  0.000E+00  0.000E+00
 13.423  0.000E+00  0.000E+00
 13.433  0.000E+00  0.000E+00
 13.443  0.000E+00  0.000E+00
 13.453  0.000E+00  0.000E+00
 13.463  0.000E+00  0.000E+00
 13.473  0.000E+00  0.000E+00
 13.483  0.000E+00  0.000E+00
 13.493  0.000E+00  0.000E+00
 13.503  0.000E+00  0.000E+00
 13.513  0.000E+00  0.000E+00
 13.523  0.000E+00  0.000E+00
 13.533  0.000E+00  0.000E+00
 13.543  0.000E+00  0.000E+00
 13.553  0.000E+00  0.000E+00
 13.563  0.000E+00  0.000E+00
 13.573  0.000E+00  0.000E+00
 13.583  0.000E+00  0.000E+00
 13.593  0.000E+00  0.000E+00
 13.603  0.000E+00  0.000E+00
 13.613  0.000E+00  0.000E+00
 13.623  0.000E+00  0.000E+00
 13.633  0.000E+00  0.000E+00
 13.643  0.000E+00  0.000E+00
 13.653  0.000E+00  0.000E+00
 13.663  0.000E+00  0.000E+00
 13.673  0.000E+00  0.000E+00
 13.683  0.000E+00  0.000E+00
 13.693  0.000E+00  0.000E+00
 13.703  0.000E+00  0.000E+00
 13.713  0.000E+00  0.000E+00
 13.723  0.000E+00  0.000E+00
 13.733  0.000E+00  0.000E+00
 13.743  0.000E+00  0.000E+00
 13.753  0.000E+00  0.000E+00
 13.763  0.000E+00  0.000E+00
 13.773  0.000E+00  0.000E+00
 13.783  0.000E+00  0.000E+00
 13.793  0.000E+00  0.000E+00
 13.803  0.000E+00  0.000E+00
 13.813  0.000E+00  0.000E+00
 13.823  0.000E+00  0.000E+00
 13.833  0.000E+00  0.000E+00
 13.843  0.000E+00  0.000E+00
 13.853  0.000E+00  0.000E+00
 13.863  0.000E+00  0.000E+00
 13.873  0.000E+00  0.000E+00
 13.883  0.000E+00  0.000E+00
 13.893  0.000E+00  0.000E+00
 13.903  0.000E+00  0.000E+00
 13.913  0.000E+00  0.000E+00
 13.923  0.000E+00  0.000E+00
 13.933  0.000E+00  0.000E+00
 13.943  0.000E+00  0.000E+00
 13.953  0.000E+00  0.000E+00
 13.963  0.000E+00  0.000E+00
 13.973  0.000E+00  0.000E+00
 13.983  0.000E+00  0.000E+00
 13.993  0.000E+00  0.000E+00
 14.003  0.000E+00  0.000E+00
 14.013  0.000E+00  0.000E+00
 14.023  0.000E+00  0.000E+00
 14.033  0.000E+00  0.000E+00
 14.043  0.000E+00  0.000E+00
 14.053  0.000E+00  0.000E+00
 14.063  0.000E+00  0.000E+00
 14.073  0.000E+00  0.000E+00
 14.083  0.000E+00  0.000E+00
 14.093  0.000E+00  0.000E+00
 14.103  0.000E+00  0.000E+00
 14.113  0.000E+00  0.000E+00
 14.123  0.000E+00  0.000E+00
 14.133  0.000E+00  0.000E+00
 14.143  0.000E+00  0.000E+00
 14.153  0.000E+00  0.000E+00
 14.163  0.000E+00  0.000E+00
 14.173  0.000E+00  0.000E+00
 14.183  0.000E+00  0.000E+00
 14.193  0.000E+00  0.000E+00
 14.203  0.000E+00  0.000E+00
 14.213  0.000E+00  0.000E+00
 14.223  0.000E+00  0.000E+00
 14.233  0.000E+00  0.000E+00
 14.243  0.000E+00  0.000E+00
 14.253  0.000E+00  0.000E+00
 14.263  0.000E+00  0.000E+00
 14.273  0.000E+00  0.000E+00
 14.283  0.000E+00  0.000E+00
 14.293  0.000E+00  0.000E+00
 14.303  0.000E+00  0.000E+00
 14.313  0.000E+00  0.000E+00
 14.323  0.000E+00  0.000E+00
 14.333  0.000E+00  0.000E+00
 14.343  0.000E+00  0.000E+00
 14.353  0.000E+00  0.000E+00
 14.363  0.000E+00  0.000E+00
 14.373  0.000E+00  0.000E+00
 14.383  0.000E+00  0.000E+00
 14.393  0.000E+00  0.000E+00
 14.403  0.000E+00  0.000E+00
 14.413  0.000E+00  0.000E+00
 14.423  0.000E+00  0.000E+00
 14.433  0.000E+00  0.000E+00
 14.443  0.000E+00  0.000E+00
 14.453  0.000E+00  0.000E+00
 14.463  0.000E+00  0.000E+00
 14.473  0.000E+00  0.000E+00
 14.483  0.000E+00  0.000E+00
 14.493  0.000E+00  0.000E+00
 14.503  0.000E+00  0.000E+00
 14.513  0.000E+00  0.000E+00
 14.523  0.000E+00  0.000E+00
 14.533  0.000E+00  0.000E+00
 14.543  0.000E+00  0.000E+00
 14.553  0.000E+00  0.000E+00
 14.563  0.000E+00  0.000E+00
 14.573  0.000E+00  0.000E+00
 14.583  0.000E+00  0.000E+00
 14.593  0.000E+00  0.000E+00
 14.603  0.000E+00  0.000E+00
 14.613  0.000E+00  0.000E+00
 14.623  0.000E+00  0.000E+00
 14.633  0.000E+00  0.000E+00
 14.643  0.165E-14  0.165E-14
 14.653  0.344E-14  0.344E-14
 14.663  0.712E-14  0.712E-14
 14.673  0.146E-13  0.146E-13
 14.683  0.295E-13  0.295E-13
 14.693  0.591E-13  0.591E-13
 14.703  0.117E-12  0.117E-12
 14.713  0.229E-12  0.229E-12
 14.723  0.444E-12  0.444E-12
 14.733  0.852E-12  0.852E-12
 14.743  0.162E-11  0.162E-11
 14.753  0.304E-11  0.304E-11
 14.763  0.564E-11  0.564E-11
 14.773  0.104E-10  0.104E-10
 14.783  0.188E-10  0.188E-10
 14.793  0.339E-10  0.339E-10
 14.803  0.602E-10  0.602E-10
 14.813  0.106E-09  0.106E-09
 14.823  0.184E-09  0.184E-09
 14.833  0.318E-09  0.318E-09
 14.843  0.541E-09  0.541E-09
 14.853  0.912E-09  0.912E-09
 14.863  0.152E-08  0.152E-08
 14.873  0.251E-08  0.251E-08
 14.883  0.410E-08  0.410E-08
 14.893  0.661E-08  0.661E-08
 14.903  0.106E-07  0.106E-07
 14.913  0.167E-07  0.167E-07
 14.923  0.261E-07  0.261E-07
 14.933  0.404E-07  0.404E-07
 14.943  0.619E-07  0.619E-07
 14.953  0.939E-07  0.939E-07
 14.963  0.141E-06  0.141E-06
 14.973  0.209E-06  0.209E-06
 14.983  0.307E-06  0.307E-06
 14.993  0.446E-06  0.446E-06
 15.003  0.642E-06  0.642E-06
 15.013  0.914E-06  0.914E-06
 15.023  0.129E-05  0.129E-05
 15.033  0.180E-05  0.180E-05
 15.043  0.249E-05  0.249E-05
 15.053  0.341E-05  0.341E-05
 15.063  0.462E-05  0.462E-05
 15.073  0.621E-05  0.621E-05
 15.083  0.826E-05  0.826E-05
 15.093  0.109E-04  0.109E-04
 15.103  0.143E-04  0.143E-04
 15.113  0.185E-04  0.185E-04
 15.123  0.238E-04  0.238E-04
 15.133  0.303E-04  0.303E-04
 15.143  0.384E-04  0.384E-04
 15.153  0.483E-04  0.483E-04
 15.163  0.603E-04  0.603E-04
 15.173  0.747E-04  0.747E-04
 15.183  0.920E-04  0.920E-04
 15.193  0.113E-03  0.113E-03
 15.203  0.137E-03  0.137E-03
 15.213  0.166E-03  0.166E-03
 15.223  0.199E-03  0.199E-03
 15.233  0.239E-03  0.239E-03
 15.243  0.284E-03  0.284E-03
 15.253  0.336E-03  0.336E-03
 15.263  0.396E-03  0.396E-03
 15.273  0.464E-03  0.464E-03
 15.283  0.541E-03  0.541E-03
 15.293  0.627E-03  0.627E-03
 15.303  0.722E-03  0.722E-03
 15.313  0.828E-03  0.828E-03
 15.323  0.942E-03  0.942E-03
 15.333  0.107E-02  0.107E-02
 15.343  0.120E-02  0.120E-02
 15.353  0.134E-02  0.134E-02
 15.363  0.148E-02  0.148E-02
 15.373  0.164E-02  0.164E-02
 15.383  0.179E-02  0.179E-02
 15.393  0.195E-02  0.195E-02
 15.403  0.210E-02  0.210E-02
 15.413  0.225E-02  0.225E-02
 15.423  0.240E-02  0.240E-02
 15.433  0.254E-02  0.254E-02
 15.443  0.267E-02  0.267E-02
 15.453  0.279E-02  0.279E-02
 15.463  0.291E-02  0.291E-02
 15.473  0.301E-02  0.301E-02
 15.483  0.311E-02  0.311E-02
 15.493  0.321E-02  0.321E-02
 15.503  0.329E-02  0.329E-02
 15.513  0.338E-02  0.338E-02
 15.523  0.347E-02  0.347E-02
 15.533  0.356E-02  0.356E-02
 15.543  0.366E-02  0.366E-02
 15.553  0.377E-02  0.377E-02
 15.563  0.389E-02  0.389E-02
 15.573  0.402E-02  0.402E-02
 15.583  0.417E-02  0.417E-02
 15.593  0.433E-02  0.433E-02
 15.603  0.451E-02  0.451E-02
 15.613  0.469E-02  0.469E-02
 15.623  0.490E-02  0.490E-02
 15.633  0.511E-02  0.511E-02
 15.643  0.533E-02  0.533E-02
 15.653  0.555E-02  0.555E-02
 15.663  0.577E-02  0.577E-02
 15.673  0.599E-02  0.599E-02
 15.683  0.621E-02  0.621E-02
 15.693  0.642E-02  0.642E-02
 15.703  0.661E-02  0.661E-02
 15.713  0.679E-02  0.679E-02
 15.723  0.695E-02  0.695E-02
 15.733  0.710E-02  0.710E-02
 15.743  0.722E-02  0.722E-02
 15.753  0.732E-02  0.732E-02
 15.763  0.740E-02  0.740E-02
 15.773  0.745E-02  0.745E-02
 15.783  0.747E-02  0.747E-02
 15.793  0.748E-02  0.748E-02
 15.803  0.746E-02  0.746E-02
 15.813  0.742E-02  0.742E-02
 15.823  0.736E-02  0.736E-02
 15.833  0.728E-02  0.728E-02
 15.843  0.719E-02  0.719E-02
 15.853  0.710E-02  0.710E-02
 15.863  0.701E-02  0.701E-02
 15.873  0.692E-02  0.692E-02
 15.883  0.685E-02  0.685E-02
 15.893  0.679E-02  0.679E-02
 15.903  0.676E-02  0.676E-02
 15.913  0.677E-02  0.677E-02
 15.923  0.681E-02  0.681E-02
 15.933  0.689E-02  0.689E-02
 15.943  0.703E-02  0.703E-02
 15.953  0.721E-02  0.721E-02
 15.963  0.745E-02  0.745E-02
 15.973  0.773E-02  0.773E-02
 15.983  0.807E-02  0.807E-02
 15.993  0.845E-02  0.845E-02
 16.003  0.887E-02  0.887E-02
 16.013  0.932E-02  0.932E-02
 16.023  0.980E-02  0.980E-02
 16.033  0.103E-01  0.103E-01
 16.043  0.108E-01  0.108E-01
 16.053  0.113E-01  0.113E-01
 16.063  0.117E-01  0.117E-01
 16.073  0.122E-01  0.122E-01
 16.083  0.126E-01  0.126E-01
 16.093  0.130E-01  0.130E-01
 16.103  0.133E-01  0.133E-01
 16.113  0.136E-01  0.136E-01
 16.123  0.138E-01  0.138E-01
 16.133  0.139E-01  0.139E-01
 16.143  0.140E-01  0.140E-01
 16.153  0.140E-01  0.140E-01
 16.163  0.140E-01  0.140E-01
 16.173  0.139E-01  0.139E-01
 16.183  0.138E-01  0.138E-01
 16.193  0.136E-01  0.136E-01
 16.203  0.134E-01  0.134E-01
 16.213  0.132E-01  0.132E-01
 16.223  0.129E-01  0.129E-01
 16.233  0.127E-01  0.127E-01
 16.243  0.124E-01  0.124E-01
 16.253  0.122E-01  0.122E-01
 16.263  0.120E-01  0.120E-01
 16.273  0.118E-01  0.118E-01
 16.283  0.117E-01  0.117E-01
 16.293  0.116E-01  0.116E-01
 16.303  0.116E-01  0.116E-01
 16.313  0.117E-01  0.117E-01
 16.323  0.118E-01  0.118E-01
 16.333  0.120E-01  0.120E-01
 16.343  0.123E-01  0.123E-01
 16.353  0.126E-01  0.126E-01
 16.363  0.131E-01  0.131E-01
 16.373  0.136E-01  0.136E-01
 16.383  0.142E-01  0.142E-01
 16.393  0.148E-01  0.148E-01
 16.403  0.156E-01  0.156E-01
 16.413  0.163E-01  0.163E-01
 16.423  0.172E-01  0.172E-01
 16.433  0.180E-01  0.180E-01
 16.443  0.189E-01  0.189E-01
 16.453  0.197E-01  0.197E-01
 16.463  0.206E-01  0.206E-01
 16.473  0.214E-01  0.214E-01
 16.483  0.222E-01  0.222E-01
 16.493  0.229E-01  0.229E-01
 16.503  0.236E-01  0.236E-01
 16.513  0.242E-01  0.242E-01
 16.523  0.248E-01  0.248E-01
 16.533  0.253E-01  0.253E-01
 16.543  0.257E-01  0.257E-01
 16.553  0.261E-01  0.261E-01
 16.563  0.263E-01  0.263E-01
 16.573  0.266E-01  0.266E-01
 16.583  0.268E-01  0.268E-01
 16.593  0.269E-01  0.269E-01
 16.603  0.270E-01  0.270E-01
 16.613  0.271E-01  0.271E-01
 16.623  0.272E-01  0.272E-01
 16.633  0.273E-01  0.273E-01
 16.643  0.274E-01  0.274E-01
 16.653  0.275E-01  0.275E-01
 16.663  0.276E-01  0.276E-01
 16.673  0.278E-01  0.278E-01
 16.683  0.279E-01  0.279E-01
 16.693  0.281E-01  0.281E-01
 16.703  0.283E-01  0.283E-01
 16.713  0.285E-01  0.285E-01
 16.723  0.288E-01  0.288E-01
 16.733  0.290E-01  0.290E-01
 16.743  0.293E-01  0.293E-01
 16.753  0.295E-01  0.295E-01
 16.763  0.297E-01  0.297E-01
 16.773  0.299E-01  0.299E-01
 16.783  0.301E-01  0.301E-01
 16.793  0.303E-01  0.303E-01
 16.803  0.304E-01  0.304E-01
 16.813  0.306E-01  0.306E-01
 16.823  0.307E-01  0.307E-01
 16.833  0.309E-01  0.309E-01
 16.843  0.310E-01  0.310E-01
 16.853  0.312E-01  0.312E-01
 16.863  0.315E-01  0.315E-01
 16.873  0.318E-01  0.318E-01
 16.883  0.323E-01  0.323E-01
 16.893  0.329E-01  0.329E-01
 16.903  0.336E-01  0.336E-01
 16.913  0.346E-01  0.346E-01
 16.923  0.357E-01  0.357E-01
 16.933  0.370E-01  0.370E-01
 16.943  0.386E-01  0.386E-01
 16.953  0.404E-01  0.404E-01
 16.963  0.424E-01  0.424E-01
 16.973  0.446E-01  0.446E-01
 16.983  0.471E-01  0.471E-01
 16.993  0.498E-01  0.498E-01
 17.003  0.526E-01  0.526E-01
 17.013  0.556E-01  0.556E-01
 17.023  0.587E-01  0.587E-01
 17.033  0.619E-01  0.619E-01
 17.043  0.651E-01  0.651E-01
 17.053  0.683E-01  0.683E-01
 17.063  0.715E-01  0.715E-01
 17.073  0.745E-01  0.745E-01
 17.083  0.774E-01  0.774E-01
 17.093  0.801E-01  0.801E-01
 17.103  0.825E-01  0.825E-01
 17.113  0.847E-01  0.847E-01
 17.123  0.865E-01  0.865E-01
 17.133  0.880E-01  0.880E-01
 17.143  0.892E-01  0.892E-01
 17.153  0.900E-01  0.900E-01
 17.163  0.905E-01  0.905E-01
 17.173  0.907E-01  0.907E-01
 17.183  0.905E-01  0.905E-01
 17.193  0.901E-01  0.901E-01
 17.203  0.894E-01  0.894E-01
 17.213  0.885E-01  0.885E-01
 17.223  0.875E-01  0.875E-01
 17.233  0.864E-01  0.864E-01
 17.243  0.853E-01  0.853E-01
 17.253  0.842E-01  0.842E-01
 17.263  0.833E-01  0.833E-01
 17.273  0.825E-01  0.825E-01
 17.283  0.820E-01  0.820E-01
 17.293  0.818E-01  0.818E-01
 17.303  0.819E-01  0.819E-01
 17.313  0.824E-01  0.824E-01
 17.323  0.833E-01  0.833E-01
 17.333  0.847E-01  0.847E-01
 17.343  0.865E-01  0.865E-01
 17.353  0.887E-01  0.887E-01
 17.363  0.913E-01  0.913E-01
 17.373  0.943E-01  0.943E-01
 17.383  0.977E-01  0.977E-01
 17.393  0.101E+00  0.101E+00
 17.403  0.105E+00  0.105E+00
 17.413  0.109E+00  0.109E+00
 17.423  0.114E+00  0.114E+00
 17.433  0.118E+00  0.118E+00
 17.443  0.122E+00  0.122E+00
 17.453  0.127E+00  0.127E+00
 17.463  0.131E+00  0.131E+00
 17.473  0.135E+00  0.135E+00
 17.483  0.139E+00  0.139E+00
 17.493  0.142E+00  0.142E+00
 17.503  0.146E+00  0.146E+00
 17.513  0.149E+00  0.149E+00
 17.523  0.151E+00  0.151E+00
 17.533  0.154E+00  0.154E+00
 17.543  0.156E+00  0.156E+00
 17.553  0.157E+00  0.157E+00
 17.563  0.158E+00  0.158E+00
 17.573  0.159E+00  0.159E+00
 17.583  0.159E+00  0.159E+00
 17.593  0.159E+00  0.159E+00
 17.603  0.159E+00  0.159E+00
 17.613  0.159E+00  0.159E+00
 17.623  0.158E+00  0.158E+00
 17.633  0.157E+00  0.157E+00
 17.643  0.156E+00  0.156E+00
 17.653  0.156E+00  0.156E+00
 17.663  0.155E+00  0.155E+00
 17.673  0.154E+00  0.154E+00
 17.683  0.154E+00  0.154E+00
 17.693  0.153E+00  0.153E+00
 17.703  0.153E+00  0.153E+00
 17.713  0.153E+00  0.153E+00
 17.723  0.154E+00  0.154E+00
 17.733  0.154E+00  0.154E+00
 17.743  0.155E+00  0.155E+00
 17.753  0.157E+00  0.157E+00
 17.763  0.158E+00  0.158E+00
 17.773  0.160E+00  0.160E+00
 17.783  0.162E+00  0.162E+00
 17.793  0.165E+00  0.165E+00
 17.803  0.167E+00  0.167E+00
 17.813  0.170E+00  0.170E+00
 17.823  0.173E+00  0.173E+00
 17.833  0.176E+00  0.176E+00
 17.843  0.179E+00  0.179E+00
 17.853  0.183E+00  0.183E+00
 17.863  0.186E+00  0.186E+00
 17.873  0.190E+00  0.190E+00
 17.883  0.194E+00  0.194E+00
 17.893  0.197E+00  0.197E+00
 17.903  0.201E+00  0.201E+00
 17.913  0.204E+00  0.204E+00
 17.923  0.208E+00  0.208E+00
 17.933  0.211E+00  0.211E+00
 17.943  0.214E+00  0.214E+00
 17.953  0.217E+00  0.217E+00
 17.963  0.219E+00  0.219E+00
 17.973  0.221E+00  0.221E+00
 17.983  0.222E+00  0.222E+00
 17.993  0.223E+00  0.223E+00
 18.003  0.224E+00  0.224E+00
 18.013  0.224E+00  0.224E+00
 18.023  0.224E+00  0.224E+00
 18.033  0.223E+00  0.223E+00
 18.043  0.222E+00  0.222E+00
 18.053  0.221E+00  0.221E+00
 18.063  0.219E+00  0.219E+00
 18.073  0.217E+00  0.217E+00
 18.083  0.215E+00  0.215E+00
 18.093  0.213E+00  0.213E+00
 18.103  0.211E+00  0.211E+00
 18.113  0.208E+00  0.208E+00
 18.123  0.206E+00  0.206E+00
 18.133  0.204E+00  0.204E+00
 18.143  0.202E+00  0.202E+00
 18.153  0.200E+00  0.200E+00
 18.163  0.198E+00  0.198E+00
 18.173  0.197E+00  0.197E+00
 18.183  0.196E+00  0.196E+00
 18.193  0.195E+00  0.195E+00
 18.203  0.194E+00  0.194E+00
 18.213  0.193E+00  0.193E+00
 18.223  0.193E+00  0.193E+00
 18.233  0.193E+00  0.193E+00
 18.243  0.194E+00  0.194E+00
 18.253  0.194E+00  0.194E+00
 18.263  0.195E+00  0.195E+00
 18.273  0.196E+00  0.196E+00
 18.283  0.198E+00  0.198E+00
 18.293  0.199E+00  0.199E+00
 18.303  0.201E+00  0.201E+00
 18.313  0.202E+00  0.202E+00
 18.323  0.204E+00  0.204E+00
 18.333  0.206E+00  0.206E+00
 18.343  0.208E+00  0.208E+00
 18.353  0.209E+00  0.209E+00
 18.363  0.210E+00  0.210E+00
 18.373  0.211E+00  0.211E+00
 18.383  0.211E+00  0.211E+00
 18.393  0.212E+00  0.212E+00
 18.403  0.211E+00  0.211E+00
 18.413  0.210E+00  0.210E+00
 18.423  0.209E+00  0.209E+00
 18.433  0.207E+00  0.207E+00
 18.443  0.205E+00  0.205E+00
 18.453  0.203E+00  0.203E+00
 18.463  0.200E+00  0.200E+00
 18.473  0.197E+00  0.197E+00
 18.483  0.194E+00  0.194E+00
 18.493  0.191E+00  0.191E+00
 18.503  0.188E+00  0.188E+00
 18.513  0.185E+00  0.185E+00
 18.523  0.182E+00  0.182E+00
 18.533  0.180E+00  0.180E+00
 18.543  0.177E+00  0.177E+00
 18.553  0.175E+00  0.175E+00
 18.563  0.173E+00  0.173E+00
 18.573  0.171E+00  0.171E+00
 18.583  0.169E+00  0.169E+00
 18.593  0.168E+00  0.168E+00
 18.603  0.166E+00  0.166E+00
 18.613  0.165E+00  0.165E+00
 18.623  0.164E+00  0.164E+00
 18.633  0.162E+00  0.162E+00
 18.643  0.161E+00  0.161E+00
 18.653  0.159E+00  0.159E+00
 18.663  0.157E+00  0.157E+00
 18.673  0.155E+00  0.155E+00
 18.683  0.153E+00  0.153E+00
 18.693  0.151E+00  0.151E+00
 18.703  0.148E+00  0.148E+00
 18.713  0.146E+00  0.146E+00
 18.723  0.143E+00  0.143E+00
 18.733  0.141E+00  0.141E+00
 18.743  0.138E+00  0.138E+00
 18.753  0.135E+00  0.135E+00
 18.763  0.133E+00  0.133E+00
 18.773  0.130E+00  0.130E+00
 18.783  0.128E+00  0.128E+00
 18.793  0.125E+00  0.125E+00
 18.803  0.123E+00  0.123E+00
 18.813  0.120E+00  0.120E+00
 18.823  0.117E+00  0.117E+00
 18.833  0.115E+00  0.115E+00
 18.843  0.112E+00  0.112E+00
 18.853  0.109E+00  0.109E+00
 18.863  0.106E+00  0.106E+00
 18.873  0.103E+00  0.103E+00
 18.883  0.100E+00  0.100E+00
 18.893  0.974E-01  0.974E-01
 18.903  0.945E-01  0.945E-01
 18.913  0.918E-01  0.918E-01
 18.923  0.892E-01  0.892E-01
 18.933  0.868E-01  0.868E-01
 18.943  0.846E-01  0.846E-01
 18.953  0.826E-01  0.826E-01
 18.963  0.810E-01  0.810E-01
 18.973  0.796E-01  0.796E-01
 18.983  0.784E-01  0.784E-01
 18.993  0.776E-01  0.776E-01
 19.003  0.769E-01  0.769E-01
 19.013  0.765E-01  0.765E-01
 19.023  0.762E-01  0.762E-01
 19.033  0.760E-01  0.760E-01
 19.043  0.759E-01  0.759E-01
 19.053  0.759E-01  0.759E-01
 19.063  0.758E-01  0.758E-01
 19.073  0.757E-01  0.757E-01
 19.083  0.755E-01  0.755E-01
 19.093  0.753E-01  0.753E-01
 19.103  0.749E-01  0.749E-01
 19.113  0.744E-01  0.744E-01
 19.123  0.738E-01  0.738E-01
 19.133  0.731E-01  0.731E-01
 19.143  0.723E-01  0.723E-01
 19.153  0.714E-01  0.714E-01
 19.163  0.704E-01  0.704E-01
 19.173  0.693E-01  0.693E-01
 19.183  0.682E-01  0.682E-01
 19.193  0.670E-01  0.670E-01
 19.203  0.658E-01  0.658E-01
 19.213  0.647E-01  0.647E-01
 19.223  0.635E-01  0.635E-01
 19.233  0.623E-01  0.623E-01
 19.243  0.612E-01  0.612E-01
 19.253  0.601E-01  0.601E-01
 19.263  0.591E-01  0.591E-01
 19.273  0.582E-01  0.582E-01
 19.283  0.572E-01  0.572E-01
 19.293  0.564E-01  0.564E-01
 19.303  0.556E-01  0.556E-01
 19.313  0.549E-01  0.549E-01
 19.323  0.542E-01  0.542E-01
 19.333  0.536E-01  0.536E-01
 19.343  0.531E-01  0.531E-01
 19.353  0.526E-01  0.526E-01
 19.363  0.521E-01  0.521E-01
 19.373  0.517E-01  0.517E-01
 19.383  0.513E-01  0.513E-01
 19.393  0.509E-01  0.509E-01
 19.403  0.504E-01  0.504E-01
 19.413  0.499E-01  0.499E-01
 19.423  0.494E-01  0.494E-01
 19.433  0.488E-01  0.488E-01
 19.443  0.481E-01  0.481E-01
 19.453  0.472E-01  0.472E-01
 19.463  0.463E-01  0.463E-01
 19.473  0.453E-01  0.453E-01
 19.483  0.441E-01  0.441E-01
 19.493  0.428E-01  0.428E-01
 19.503  0.415E-01  0.415E-01
 19.513  0.400E-01  0.400E-01
 19.523  0.385E-01  0.385E-01
 19.533  0.369E-01  0.369E-01
 19.543  0.353E-01  0.353E-01
 19.553  0.338E-01  0.338E-01
 19.563  0.322E-01  0.322E-01
 19.573  0.307E-01  0.307E-01
 19.583  0.292E-01  0.292E-01
 19.593  0.278E-01  0.278E-01
 19.603  0.265E-01  0.265E-01
 19.613  0.253E-01  0.253E-01
 19.623  0.242E-01  0.242E-01
 19.633  0.232E-01  0.232E-01
 19.643  0.223E-01  0.223E-01
 19.653  0.215E-01  0.215E-01
 19.663  0.207E-01  0.207E-01
 19.673  0.200E-01  0.200E-01
 19.683  0.194E-01  0.194E-01
 19.693  0.189E-01  0.189E-01
 19.703  0.183E-01  0.183E-01
 19.713  0.178E-01  0.178E-01
 19.723  0.174E-01  0.174E-01
 19.733  0.169E-01  0.169E-01
 19.743  0.165E-01  0.165E-01
 19.753  0.161E-01  0.161E-01
 19.763  0.158E-01  0.158E-01
 19.773  0.155E-01  0.155E-01
 19.783  0.152E-01  0.152E-01
 19.793  0.150E-01  0.150E-01
 19.803  0.148E-01  0.148E-01
 19.813  0.147E-01  0.147E-01
 19.823  0.148E-01  0.148E-01
 19.833  0.149E-01  0.149E-01
 19.843  0.151E-01  0.151E-01
 19.853  0.155E-01  0.155E-01
 19.863  0.160E-01  0.160E-01
 19.873  0.166E-01  0.166E-01
 19.883  0.174E-01  0.174E-01
 19.893  0.183E-01  0.183E-01
 19.903  0.194E-01  0.194E-01
 19.913  0.206E-01  0.206E-01
 19.923  0.220E-01  0.220E-01
 19.933  0.235E-01  0.235E-01
 19.943  0.252E-01  0.252E-01
 19.953  0.269E-01  0.269E-01
 19.963  0.288E-01  0.288E-01
 19.973  0.308E-01  0.308E-01
 19.983  0.329E-01  0.329E-01
 19.993  0.351E-01  0.351E-01
 20.003  0.373E-01  0.373E-01
 20.013  0.396E-01  0.396E-01
 20.023  0.419E-01  0.419E-01
 20.033  0.441E-01  0.441E-01
 20.043  0.463E-01  0.463E-01
 20.053  0.485E-01  0.485E-01
 20.063  0.505E-01  0.505E-01
 20.073  0.523E-01  0.523E-01
 20.083  0.541E-01  0.541E-01
 20.093  0.556E-01  0.556E-01
 20.103  0.568E-01  0.568E-01
 20.113  0.579E-01  0.579E-01
 20.123  0.586E-01  0.586E-01
 20.133  0.591E-01  0.591E-01
 20.143  0.593E-01  0.593E-01
 20.153  0.592E-01  0.592E-01
 20.163  0.587E-01  0.587E-01
 20.173  0.580E-01  0.580E-01
 20.183  0.571E-01  0.571E-01
 20.193  0.559E-01  0.559E-01
 20.203  0.544E-01  0.544E-01
 20.213  0.528E-01  0.528E-01
 20.223  0.510E-01  0.510E-01
 20.233  0.491E-01  0.491E-01
 20.243  0.471E-01  0.471E-01
 20.253  0.450E-01  0.450E-01
 20.263  0.430E-01  0.430E-01
 20.273  0.409E-01  0.409E-01
 20.283  0.390E-01  0.390E-01
 20.293  0.371E-01  0.371E-01
 20.303  0.354E-01  0.354E-01
 20.313  0.338E-01  0.338E-01
 20.323  0.324E-01  0.324E-01
 20.333  0.312E-01  0.312E-01
 20.343  0.302E-01  0.302E-01
 20.353  0.293E-01  0.293E-01
 20.363  0.287E-01  0.287E-01
 20.373  0.282E-01  0.282E-01
 20.383  0.279E-01  0.279E-01
 20.393  0.278E-01  0.278E-01
 20.403  0.278E-01  0.278E-01
 20.413  0.278E-01  0.278E-01
 20.423  0.280E-01  0.280E-01
 20.433  0.281E-01  0.281E-01
 20.443  0.284E-01  0.284E-01
 20.453  0.286E-01  0.286E-01
 20.463  0.288E-01  0.288E-01
 20.473  0.290E-01  0.290E-01
 20.483  0.292E-01  0.292E-01
 20.493  0.293E-01  0.293E-01
 20.503  0.294E-01  0.294E-01
 20.513  0.296E-01  0.296E-01
 20.523  0.297E-01  0.297E-01
 20.533  0.299E-01  0.299E-01
 20.543  0.301E-01  0.301E-01
 20.553  0.304E-01  0.304E-01
 20.563  0.307E-01  0.307E-01
 20.573  0.312E-01  0.312E-01
 20.583  0.318E-01  0.318E-01
 20.593  0.325E-01  0.325E-01
 20.603  0.334E-01  0.334E-01
 20.613  0.344E-01  0.344E-01
 20.623  0.354E-01  0.354E-01
 20.633  0.366E-01  0.366E-01
 20.643  0.379E-01  0.379E-01
 20.653  0.392E-01  0.392E-01
 20.663  0.405E-01  0.405E-01
 20.673  0.418E-01  0.418E-01
 20.683  0.431E-01  0.431E-01
 20.693  0.442E-01  0.442E-01
 20.703  0.453E-01  0.453E-01
 20.713  0.462E-01  0.462E-01
 20.723  0.469E-01  0.469E-01
 20.733  0.474E-01  0.474E-01
 20.743  0.478E-01  0.478E-01
 20.753  0.480E-01  0.480E-01
 20.763  0.479E-01  0.479E-01
 20.773  0.477E-01  0.477E-01
 20.783  0.474E-01  0.474E-01
 20.793  0.469E-01  0.469E-01
 20.803  0.462E-01  0.462E-01
 20.813  0.455E-01  0.455E-01
 20.823  0.448E-01  0.448E-01
 20.833  0.439E-01  0.439E-01
 20.843  0.431E-01  0.431E-01
 20.853  0.422E-01  0.422E-01
 20.863  0.414E-01  0.414E-01
 20.873  0.406E-01  0.406E-01
 20.883  0.399E-01  0.399E-01
 20.893  0.392E-01  0.392E-01
 20.903  0.385E-01  0.385E-01
 20.913  0.379E-01  0.379E-01
 20.923  0.374E-01  0.374E-01
 20.933  0.369E-01  0.369E-01
 20.943  0.364E-01  0.364E-01
 20.953  0.360E-01  0.360E-01
 20.963  0.357E-01  0.357E-01
 20.973  0.353E-01  0.353E-01
 20.983  0.351E-01  0.351E-01
 20.993  0.349E-01  0.349E-01
 21.003  0.348E-01  0.348E-01
 21.013  0.347E-01  0.347E-01
 21.023  0.347E-01  0.347E-01
 21.033  0.349E-01  0.349E-01
 21.043  0.351E-01  0.351E-01
 21.053  0.354E-01  0.354E-01
 21.063  0.358E-01  0.358E-01
 21.073  0.363E-01  0.363E-01
 21.083  0.369E-01  0.369E-01
 21.093  0.376E-01  0.376E-01
 21.103  0.383E-01  0.383E-01
 21.113  0.391E-01  0.391E-01
 21.123  0.400E-01  0.400E-01
 21.133  0.409E-01  0.409E-01
 21.143  0.418E-01  0.418E-01
 21.153  0.427E-01  0.427E-01
 21.163  0.437E-01  0.437E-01
 21.173  0.446E-01  0.446E-01
 21.183  0.455E-01  0.455E-01
 21.193  0.465E-01  0.465E-01
 21.203  0.475E-01  0.475E-01
 21.213  0.485E-01  0.485E-01
 21.223  0.495E-01  0.495E-01
 21.233  0.505E-01  0.505E-01
 21.243  0.516E-01  0.516E-01
 21.253  0.527E-01  0.527E-01
 21.263  0.539E-01  0.539E-01
 21.273  0.552E-01  0.552E-01
 21.283  0.564E-01  0.564E-01
 21.293  0.577E-01  0.577E-01
 21.303  0.591E-01  0.591E-01
 21.313  0.604E-01  0.604E-01
 21.323  0.617E-01  0.617E-01
 21.333  0.630E-01  0.630E-01
 21.343  0.641E-01  0.641E-01
 21.353  0.652E-01  0.652E-01
 21.363  0.661E-01  0.661E-01
 21.373  0.668E-01  0.668E-01
 21.383  0.673E-01  0.673E-01
 21.393  0.676E-01  0.676E-01
 21.403  0.675E-01  0.675E-01
 21.413  0.673E-01  0.673E-01
 21.423  0.667E-01  0.667E-01
 21.433  0.659E-01  0.659E-01
 21.443  0.648E-01  0.648E-01
 21.453  0.634E-01  0.634E-01
 21.463  0.618E-01  0.618E-01
 21.473  0.601E-01  0.601E-01
 21.483  0.582E-01  0.582E-01
 21.493  0.562E-01  0.562E-01
 21.503  0.541E-01  0.541E-01
 21.513  0.520E-01  0.520E-01
 21.523  0.499E-01  0.499E-01
 21.533  0.479E-01  0.479E-01
 21.543  0.460E-01  0.460E-01
 21.553  0.442E-01  0.442E-01
 21.563  0.425E-01  0.425E-01
 21.573  0.410E-01  0.410E-01
 21.583  0.397E-01  0.397E-01
 21.593  0.386E-01  0.386E-01
 21.603  0.376E-01  0.376E-01
 21.613  0.369E-01  0.369E-01
 21.623  0.363E-01  0.363E-01
 21.633  0.359E-01  0.359E-01
 21.643  0.357E-01  0.357E-01
 21.653  0.356E-01  0.356E-01
 21.663  0.357E-01  0.357E-01
 21.673  0.359E-01  0.359E-01
 21.683  0.362E-01  0.362E-01
 21.693  0.366E-01  0.366E-01
 21.703  0.371E-01  0.371E-01
 21.713  0.377E-01  0.377E-01
 21.723  0.383E-01  0.383E-01
 21.733  0.390E-01  0.390E-01
 21.743  0.397E-01  0.397E-01
 21.753  0.405E-01  0.405E-01
 21.763  0.412E-01  0.412E-01
 21.773  0.420E-01  0.420E-01
 21.783  0.427E-01  0.427E-01
 21.793  0.434E-01  0.434E-01
 21.803  0.442E-01  0.442E-01
 21.813  0.449E-01  0.449E-01
 21.823  0.456E-01  0.456E-01
 21.833  0.463E-01  0.463E-01
 21.843  0.471E-01  0.471E-01
 21.853  0.478E-01  0.478E-01
 21.863  0.486E-01  0.486E-01
 21.873  0.495E-01  0.495E-01
 21.883  0.503E-01  0.503E-01
 21.893  0.513E-01  0.513E-01
 21.903  0.522E-01  0.522E-01
 21.913  0.532E-01  0.532E-01
 21.923  0.543E-01  0.543E-01
 21.933  0.554E-01  0.554E-01
 21.943  0.565E-01  0.565E-01
 21.953  0.576E-01  0.576E-01
 21.963  0.586E-01  0.586E-01
 21.973  0.596E-01  0.596E-01
 21.983  0.606E-01  0.606E-01
 21.993  0.614E-01  0.614E-01
 22.003  0.621E-01  0.621E-01
 22.013  0.626E-01  0.626E-01
 22.023  0.629E-01  0.629E-01
 22.033  0.630E-01  0.630E-01
 22.043  0.630E-01  0.630E-01
 22.053  0.626E-01  0.626E-01
 22.063  0.621E-01  0.621E-01
 22.073  0.613E-01  0.613E-01
 22.083  0.603E-01  0.603E-01
 22.093  0.592E-01  0.592E-01
 22.103  0.578E-01  0.578E-01
 22.113  0.563E-01  0.563E-01
 22.123  0.546E-01  0.546E-01
 22.133  0.528E-01  0.528E-01
 22.143  0.510E-01  0.510E-01
 22.153  0.491E-01  0.491E-01
 22.163  0.472E-01  0.472E-01
 22.173  0.453E-01  0.453E-01
 22.183  0.434E-01  0.434E-01
 22.193  0.416E-01  0.416E-01
 22.203  0.398E-01  0.398E-01
 22.213  0.381E-01  0.381E-01
 22.223  0.365E-01  0.365E-01
 22.233  0.350E-01  0.350E-01
 22.243  0.336E-01  0.336E-01
 22.253  0.323E-01  0.323E-01
 22.263  0.310E-01  0.310E-01
 22.273  0.299E-01  0.299E-01
 22.283  0.288E-01  0.288E-01
 22.293  0.279E-01  0.279E-01
 22.303  0.270E-01  0.270E-01
 22.313  0.262E-01  0.262E-01
 22.323  0.255E-01  0.255E-01
 22.333  0.249E-01  0.249E-01
 22.343  0.243E-01  0.243E-01
 22.353  0.239E-01  0.239E-01
 22.363  0.235E-01  0.235E-01
 22.373  0.231E-01  0.231E-01
 22.383  0.229E-01  0.229E-01
 22.393  0.227E-01  0.227E-01
 22.403  0.225E-01  0.225E-01
 22.413  0.225E-01  0.225E-01
 22.423  0.224E-01  0.224E-01
 22.433  0.225E-01  0.225E-01
 22.443  0.225E-01  0.225E-01
 22.453  0.226E-01  0.226E-01
 22.463  0.227E-01  0.227E-01
 22.473  0.229E-01  0.229E-01
 22.483  0.230E-01  0.230E-01
 22.493  0.232E-01  0.232E-01
 22.503  0.234E-01  0.234E-01
 22.513  0.235E-01  0.235E-01
 22.523  0.237E-01  0.237E-01
 22.533  0.240E-01  0.240E-01
 22.543  0.242E-01  0.242E-01
 22.553  0.245E-01  0.245E-01
 22.563  0.248E-01  0.248E-01
 22.573  0.252E-01  0.252E-01
 22.583  0.256E-01  0.256E-01
 22.593  0.261E-01  0.261E-01
 22.603  0.266E-01  0.266E-01
 22.613  0.272E-01  0.272E-01
 22.623  0.279E-01  0.279E-01
 22.633  0.286E-01  0.286E-01
 22.643  0.294E-01  0.294E-01
 22.653  0.303E-01  0.303E-01
 22.663  0.312E-01  0.312E-01
 22.673  0.321E-01  0.321E-01
 22.683  0.331E-01  0.331E-01
 22.693  0.341E-01  0.341E-01
 22.703  0.350E-01  0.350E-01
 22.713  0.359E-01  0.359E-01
 22.723  0.368E-01  0.368E-01
 22.733  0.375E-01  0.375E-01
 22.743  0.382E-01  0.382E-01
 22.753  0.387E-01  0.387E-01
 22.763  0.390E-01  0.390E-01
 22.773  0.392E-01  0.392E-01
 22.783  0.392E-01  0.392E-01
 22.793  0.390E-01  0.390E-01
 22.803  0.387E-01  0.387E-01
 22.813  0.381E-01  0.381E-01
 22.823  0.373E-01  0.373E-01
 22.833  0.364E-01  0.364E-01
 22.843  0.353E-01  0.353E-01
 22.853  0.341E-01  0.341E-01
 22.863  0.327E-01  0.327E-01
 22.873  0.313E-01  0.313E-01
 22.883  0.298E-01  0.298E-01
 22.893  0.283E-01  0.283E-01
 22.903  0.267E-01  0.267E-01
 22.913  0.252E-01  0.252E-01
 22.923  0.238E-01  0.238E-01
 22.933  0.223E-01  0.223E-01
 22.943  0.210E-01  0.210E-01
 22.953  0.197E-01  0.197E-01
 22.963  0.186E-01  0.186E-01
 22.973  0.176E-01  0.176E-01
 22.983  0.166E-01  0.166E-01
 22.993  0.158E-01  0.158E-01
 23.003  0.151E-01  0.151E-01
 23.013  0.145E-01  0.145E-01
 23.023  0.140E-01  0.140E-01
 23.033  0.135E-01  0.135E-01
 23.043  0.132E-01  0.132E-01
 23.053  0.130E-01  0.130E-01
 23.063  0.128E-01  0.128E-01
 23.073  0.126E-01  0.126E-01
 23.083  0.126E-01  0.126E-01
 23.093  0.126E-01  0.126E-01
 23.103  0.126E-01  0.126E-01
 23.113  0.127E-01  0.127E-01
 23.123  0.128E-01  0.128E-01
 23.133  0.129E-01  0.129E-01
 23.143  0.130E-01  0.130E-01
 23.153  0.132E-01  0.132E-01
 23.163  0.134E-01  0.134E-01
 23.173  0.136E-01  0.136E-01
 23.183  0.138E-01  0.138E-01
 23.193  0.139E-01  0.139E-01
 23.203  0.141E-01  0.141E-01
 23.213  0.143E-01  0.143E-01
 23.223  0.145E-01  0.145E-01
 23.233  0.146E-01  0.146E-01
 23.243  0.147E-01  0.147E-01
 23.253  0.149E-01  0.149E-01
 23.263  0.150E-01  0.150E-01
 23.273  0.151E-01  0.151E-01
 23.283  0.152E-01  0.152E-01
 23.293  0.153E-01  0.153E-01
 23.303  0.155E-01  0.155E-01
 23.313  0.156E-01  0.156E-01
 23.323  0.158E-01  0.158E-01
 23.333  0.160E-01  0.160E-01
 23.343  0.163E-01  0.163E-01
 23.353  0.165E-01  0.165E-01
 23.363  0.169E-01  0.169E-01
 23.373  0.172E-01  0.172E-01
 23.383  0.176E-01  0.176E-01
 23.393  0.181E-01  0.181E-01
 23.403  0.185E-01  0.185E-01
 23.413  0.190E-01  0.190E-01
 23.423  0.194E-01  0.194E-01
 23.433  0.199E-01  0.199E-01
 23.443  0.203E-01  0.203E-01
 23.453  0.208E-01  0.208E-01
 23.463  0.211E-01  0.211E-01
 23.473  0.214E-01  0.214E-01
 23.483  0.217E-01  0.217E-01
 23.493  0.218E-01  0.218E-01
 23.503  0.219E-01  0.219E-01
 23.513  0.219E-01  0.219E-01
 23.523  0.218E-01  0.218E-01
 23.533  0.216E-01  0.216E-01
 23.543  0.214E-01  0.214E-01
 23.553  0.210E-01  0.210E-01
 23.563  0.206E-01  0.206E-01
 23.573  0.201E-01  0.201E-01
 23.583  0.195E-01  0.195E-01
 23.593  0.189E-01  0.189E-01
 23.603  0.183E-01  0.183E-01
 23.613  0.176E-01  0.176E-01
 23.623  0.170E-01  0.170E-01
 23.633  0.163E-01  0.163E-01
 23.643  0.157E-01  0.157E-01
 23.653  0.151E-01  0.151E-01
 23.663  0.145E-01  0.145E-01
 23.673  0.140E-01  0.140E-01
 23.683  0.136E-01  0.136E-01
 23.693  0.132E-01  0.132E-01
 23.703  0.129E-01  0.129E-01
 23.713  0.126E-01  0.126E-01
 23.723  0.123E-01  0.123E-01
 23.733  0.122E-01  0.122E-01
 23.743  0.120E-01  0.120E-01
 23.753  0.119E-01  0.119E-01
 23.763  0.118E-01  0.118E-01
 23.773  0.118E-01  0.118E-01
 23.783  0.117E-01  0.117E-01
 23.793  0.117E-01  0.117E-01
 23.803  0.117E-01  0.117E-01
 23.813  0.117E-01  0.117E-01
 23.823  0.117E-01  0.117E-01
 23.833  0.117E-01  0.117E-01
 23.843  0.118E-01  0.118E-01
 23.853  0.118E-01  0.118E-01
 23.863  0.119E-01  0.119E-01
 23.873  0.119E-01  0.119E-01
 23.883  0.120E-01  0.120E-01
 23.893  0.121E-01  0.121E-01
 23.903  0.122E-01  0.122E-01
 23.913  0.124E-01  0.124E-01
 23.923  0.125E-01  0.125E-01
 23.933  0.126E-01  0.126E-01
 23.943  0.128E-01  0.128E-01
 23.953  0.129E-01  0.129E-01
 23.963  0.130E-01  0.130E-01
 23.973  0.131E-01  0.131E-01
 23.983  0.132E-01  0.132E-01
 23.993  0.133E-01  0.133E-01
 24.003  0.133E-01  0.133E-01
 24.013  0.133E-01  0.133E-01
 24.023  0.132E-01  0.132E-01
 24.033  0.131E-01  0.131E-01
 24.043  0.129E-01  0.129E-01
 24.053  0.127E-01  0.127E-01
 24.063  0.124E-01  0.124E-01
 24.073  0.121E-01  0.121E-01
 24.083  0.118E-01  0.118E-01
 24.093  0.114E-01  0.114E-01
 24.103  0.110E-01  0.110E-01
 24.113  0.106E-01  0.106E-01
 24.123  0.102E-01  0.102E-01
 24.133  0.974E-02  0.974E-02
 24.143  0.934E-02  0.934E-02
 24.153  0.897E-02  0.897E-02
 24.163  0.862E-02  0.862E-02
 24.173  0.831E-02  0.831E-02
 24.183  0.804E-02  0.804E-02
 24.193  0.782E-02  0.782E-02
 24.203  0.763E-02  0.763E-02
 24.213  0.749E-02  0.749E-02
 24.223  0.738E-02  0.738E-02
 24.233  0.731E-02  0.731E-02
 24.243  0.726E-02  0.726E-02
 24.253  0.723E-02  0.723E-02
 24.263  0.722E-02  0.722E-02
 24.273  0.721E-02  0.721E-02
 24.283  0.720E-02  0.720E-02
 24.293  0.718E-02  0.718E-02
 24.303  0.715E-02  0.715E-02
 24.313  0.710E-02  0.710E-02
 24.323  0.702E-02  0.702E-02
 24.333  0.691E-02  0.691E-02
 24.343  0.678E-02  0.678E-02
 24.353  0.662E-02  0.662E-02
 24.363  0.644E-02  0.644E-02
 24.373  0.623E-02  0.623E-02
 24.383  0.601E-02  0.601E-02
 24.393  0.577E-02  0.577E-02
 24.403  0.553E-02  0.553E-02
 24.413  0.528E-02  0.528E-02
 24.423  0.504E-02  0.504E-02
 24.433  0.481E-02  0.481E-02
 24.443  0.460E-02  0.460E-02
 24.453  0.441E-02  0.441E-02
 24.463  0.424E-02  0.424E-02
 24.473  0.411E-02  0.411E-02
 24.483  0.401E-02  0.401E-02
 24.493  0.395E-02  0.395E-02
 24.503  0.392E-02  0.392E-02
 24.513  0.393E-02  0.393E-02
 24.523  0.397E-02  0.397E-02
 24.533  0.404E-02  0.404E-02
 24.543  0.414E-02  0.414E-02
 24.553  0.426E-02  0.426E-02
 24.563  0.439E-02  0.439E-02
 24.573  0.454E-02  0.454E-02
 24.583  0.468E-02  0.468E-02
 24.593  0.483E-02  0.483E-02
 24.603  0.496E-02  0.496E-02
 24.613  0.509E-02  0.509E-02
 24.623  0.519E-02  0.519E-02
 24.633  0.527E-02  0.527E-02
 24.643  0.533E-02  0.533E-02
 24.653  0.536E-02  0.536E-02
 24.663  0.536E-02  0.536E-02
 24.673  0.533E-02  0.533E-02
 24.683  0.528E-02  0.528E-02
 24.693  0.520E-02  0.520E-02
 24.703  0.510E-02  0.510E-02
 24.713  0.499E-02  0.499E-02
 24.723  0.485E-02  0.485E-02
 24.733  0.471E-02  0.471E-02
 24.743  0.455E-02  0.455E-02
 24.753  0.439E-02  0.439E-02
 24.763  0.423E-02  0.423E-02
 24.773  0.407E-02  0.407E-02
 24.783  0.391E-02  0.391E-02
 24.793  0.376E-02  0.376E-02
 24.803  0.361E-02  0.361E-02
 24.813  0.348E-02  0.348E-02
 24.823  0.334E-02  0.334E-02
 24.833  0.322E-02  0.322E-02
 24.843  0.311E-02  0.311E-02
 24.853  0.300E-02  0.300E-02
 24.863  0.289E-02  0.289E-02
 24.873  0.279E-02  0.279E-02
 24.883  0.270E-02  0.270E-02
 24.893  0.260E-02  0.260E-02
 24.903  0.251E-02  0.251E-02
 24.913  0.242E-02  0.242E-02
 24.923  0.233E-02  0.233E-02
 24.933  0.224E-02  0.224E-02
 24.943  0.215E-02  0.215E-02
 24.953  0.207E-02  0.207E-02
 24.963  0.199E-02  0.199E-02
 24.973  0.192E-02  0.192E-02
 24.983  0.185E-02  0.185E-02
 24.993  0.180E-02  0.180E-02
 25.003  0.175E-02  0.175E-02
 25.013  0.172E-02  0.172E-02
 25.023  0.170E-02  0.170E-02
 25.033  0.169E-02  0.169E-02
 25.043  0.170E-02  0.170E-02
 25.053  0.173E-02  0.173E-02
 25.063  0.177E-02  0.177E-02
 25.073  0.183E-02  0.183E-02
 25.083  0.191E-02  0.191E-02
 25.093  0.200E-02  0.200E-02
 25.103  0.211E-02  0.211E-02
 25.113  0.223E-02  0.223E-02
 25.123  0.236E-02  0.236E-02
 25.133  0.250E-02  0.250E-02
 25.143  0.265E-02  0.265E-02
 25.153  0.281E-02  0.281E-02
 25.163  0.297E-02  0.297E-02
 25.173  0.313E-02  0.313E-02
 25.183  0.329E-02  0.329E-02
 25.193  0.344E-02  0.344E-02
 25.203  0.359E-02  0.359E-02
 25.213  0.373E-02  0.373E-02
 25.223  0.385E-02  0.385E-02
 25.233  0.396E-02  0.396E-02
 25.243  0.405E-02  0.405E-02
 25.253  0.411E-02  0.411E-02
 25.263  0.416E-02  0.416E-02
 25.273  0.417E-02  0.417E-02
 25.283  0.416E-02  0.416E-02
 25.293  0.413E-02  0.413E-02
 25.303  0.406E-02  0.406E-02
 25.313  0.397E-02  0.397E-02
 25.323  0.385E-02  0.385E-02
 25.333  0.371E-02  0.371E-02
 25.343  0.355E-02  0.355E-02
 25.353  0.337E-02  0.337E-02
 25.363  0.318E-02  0.318E-02
 25.373  0.298E-02  0.298E-02
 25.383  0.277E-02  0.277E-02
 25.393  0.255E-02  0.255E-02
 25.403  0.234E-02  0.234E-02
 25.413  0.213E-02  0.213E-02
 25.423  0.193E-02  0.193E-02
 25.433  0.173E-02  0.173E-02
 25.443  0.155E-02  0.155E-02
 25.453  0.138E-02  0.138E-02
 25.463  0.122E-02  0.122E-02
 25.473  0.108E-02  0.108E-02
 25.483  0.945E-03  0.945E-03
 25.493  0.829E-03  0.829E-03
 25.503  0.726E-03  0.726E-03
 25.513  0.638E-03  0.638E-03
 25.523  0.563E-03  0.563E-03
 25.533  0.502E-03  0.502E-03
 25.543  0.454E-03  0.454E-03
 25.553  0.419E-03  0.419E-03
 25.563  0.398E-03  0.398E-03
 25.573  0.390E-03  0.390E-03
 25.583  0.396E-03  0.396E-03
 25.593  0.416E-03  0.416E-03
 25.603  0.452E-03  0.452E-03
 25.613  0.503E-03  0.503E-03
 25.623  0.570E-03  0.570E-03
 25.633  0.653E-03  0.653E-03
 25.643  0.753E-03  0.753E-03
 25.653  0.870E-03  0.870E-03
 25.663  0.100E-02  0.100E-02
 25.673  0.115E-02  0.115E-02
 25.683  0.132E-02  0.132E-02
 25.693  0.149E-02  0.149E-02
 25.703  0.168E-02  0.168E-02
 25.713  0.187E-02  0.187E-02
 25.723  0.207E-02  0.207E-02
 25.733  0.226E-02  0.226E-02
 25.743  0.246E-02  0.246E-02
 25.753  0.264E-02  0.264E-02
 25.763  0.281E-02  0.281E-02
 25.773  0.296E-02  0.296E-02
 25.783  0.310E-02  0.310E-02
 25.793  0.320E-02  0.320E-02
 25.803  0.328E-02  0.328E-02
 25.813  0.333E-02  0.333E-02
 25.823  0.335E-02  0.335E-02
 25.833  0.333E-02  0.333E-02
 25.843  0.328E-02  0.328E-02
 25.853  0.321E-02  0.321E-02
 25.863  0.310E-02  0.310E-02
 25.873  0.297E-02  0.297E-02
 25.883  0.282E-02  0.282E-02
 25.893  0.265E-02  0.265E-02
 25.903  0.246E-02  0.246E-02
 25.913  0.227E-02  0.227E-02
 25.923  0.207E-02  0.207E-02
 25.933  0.188E-02  0.188E-02
 25.943  0.168E-02  0.168E-02
 25.953  0.150E-02  0.150E-02
 25.963  0.132E-02  0.132E-02
 25.973  0.115E-02  0.115E-02
 25.983  0.100E-02  0.100E-02
 25.993  0.865E-03  0.865E-03
 26.003  0.743E-03  0.743E-03
 26.013  0.637E-03  0.637E-03
 26.023  0.545E-03  0.545E-03
 26.033  0.469E-03  0.469E-03
 26.043  0.405E-03  0.405E-03
 26.053  0.355E-03  0.355E-03
 26.063  0.316E-03  0.316E-03
 26.073  0.288E-03  0.288E-03
 26.083  0.269E-03  0.269E-03
 26.093  0.259E-03  0.259E-03
 26.103  0.257E-03  0.257E-03
 26.113  0.262E-03  0.262E-03
 26.123  0.273E-03  0.273E-03
 26.133  0.290E-03  0.290E-03
 26.143  0.313E-03  0.313E-03
 26.153  0.341E-03  0.341E-03
 26.163  0.374E-03  0.374E-03
 26.173  0.413E-03  0.413E-03
 26.183  0.457E-03  0.457E-03
 26.193  0.507E-03  0.507E-03
 26.203  0.562E-03  0.562E-03
 26.213  0.624E-03  0.624E-03
 26.223  0.691E-03  0.691E-03
 26.233  0.764E-03  0.764E-03
 26.243  0.842E-03  0.842E-03
 26.253  0.926E-03  0.926E-03
 26.263  0.101E-02  0.101E-02
 26.273  0.110E-02  0.110E-02
 26.283  0.120E-02  0.120E-02
 26.293  0.129E-02  0.129E-02
 26.303  0.138E-02  0.138E-02
 26.313  0.147E-02  0.147E-02
 26.323  0.155E-02  0.155E-02
 26.333  0.163E-02  0.163E-02
 26.343  0.170E-02  0.170E-02
 26.353  0.175E-02  0.175E-02
 26.363  0.179E-02  0.179E-02
 26.373  0.182E-02  0.182E-02
 26.383  0.183E-02  0.183E-02
 26.393  0.182E-02  0.182E-02
 26.403  0.180E-02  0.180E-02
 26.413  0.176E-02  0.176E-02
 26.423  0.171E-02  0.171E-02
 26.433  0.165E-02  0.165E-02
 26.443  0.157E-02  0.157E-02
 26.453  0.148E-02  0.148E-02
 26.463  0.139E-02  0.139E-02
 26.473  0.129E-02  0.129E-02
 26.483  0.119E-02  0.119E-02
 26.493  0.108E-02  0.108E-02
 26.503  0.981E-03  0.981E-03
 26.513  0.883E-03  0.883E-03
 26.523  0.789E-03  0.789E-03
 26.533  0.700E-03  0.700E-03
 26.543  0.619E-03  0.619E-03
 26.553  0.545E-03  0.545E-03
 26.563  0.478E-03  0.478E-03
 26.573  0.419E-03  0.419E-03
 26.583  0.367E-03  0.367E-03
 26.593  0.323E-03  0.323E-03
 26.603  0.286E-03  0.286E-03
 26.613  0.256E-03  0.256E-03
 26.623  0.232E-03  0.232E-03
 26.633  0.214E-03  0.214E-03
 26.643  0.201E-03  0.201E-03
 26.653  0.194E-03  0.194E-03
 26.663  0.192E-03  0.192E-03
 26.673  0.194E-03  0.194E-03
 26.683  0.201E-03  0.201E-03
 26.693  0.212E-03  0.212E-03
 26.703  0.227E-03  0.227E-03
 26.713  0.246E-03  0.246E-03
 26.723  0.268E-03  0.268E-03
 26.733  0.293E-03  0.293E-03
 26.743  0.321E-03  0.321E-03
 26.753  0.352E-03  0.352E-03
 26.763  0.384E-03  0.384E-03
 26.773  0.418E-03  0.418E-03
 26.783  0.453E-03  0.453E-03
 26.793  0.488E-03  0.488E-03
 26.803  0.524E-03  0.524E-03
 26.813  0.559E-03  0.559E-03
 26.823  0.593E-03  0.593E-03
 26.833  0.625E-03  0.625E-03
 26.843  0.654E-03  0.654E-03
 26.853  0.681E-03  0.681E-03
 26.863  0.704E-03  0.704E-03
 26.873  0.724E-03  0.724E-03
 26.883  0.739E-03  0.739E-03
 26.893  0.749E-03  0.749E-03
 26.903  0.755E-03  0.755E-03
 26.913  0.755E-03  0.755E-03
 26.923  0.749E-03  0.749E-03
 26.933  0.739E-03  0.739E-03
 26.943  0.723E-03  0.723E-03
 26.953  0.703E-03  0.703E-03
 26.963  0.678E-03  0.678E-03
 26.973  0.649E-03  0.649E-03
 26.983  0.616E-03  0.616E-03
 26.993  0.581E-03  0.581E-03
 27.003  0.545E-03  0.545E-03
 27.013  0.507E-03  0.507E-03
 27.023  0.468E-03  0.468E-03
 27.033  0.430E-03  0.430E-03
 27.043  0.392E-03  0.392E-03
 27.053  0.356E-03  0.356E-03
 27.063  0.322E-03  0.322E-03
 27.073  0.290E-03  0.290E-03
 27.083  0.260E-03  0.260E-03
 27.093  0.234E-03  0.234E-03
 27.103  0.209E-03  0.209E-03
 27.113  0.188E-03  0.188E-03
 27.123  0.170E-03  0.170E-03
 27.133  0.154E-03  0.154E-03
 27.143  0.141E-03  0.141E-03
 27.153  0.130E-03  0.130E-03
 27.163  0.122E-03  0.122E-03
 27.173  0.116E-03  0.116E-03
 27.183  0.112E-03  0.112E-03
 27.193  0.110E-03  0.110E-03
 27.203  0.110E-03  0.110E-03
 27.213  0.111E-03  0.111E-03
 27.223  0.114E-03  0.114E-03
 27.233  0.119E-03  0.119E-03
 27.243  0.124E-03  0.124E-03
 27.253  0.131E-03  0.131E-03
 27.263  0.138E-03  0.138E-03
 27.273  0.146E-03  0.146E-03
 27.283  0.153E-03  0.153E-03
 27.293  0.161E-03  0.161E-03
 27.303  0.168E-03  0.168E-03
 27.313  0.175E-03  0.175E-03
 27.323  0.181E-03  0.181E-03
 27.333  0.185E-03  0.185E-03
 27.343  0.188E-03  0.188E-03
 27.353  0.190E-03  0.190E-03
 27.363  0.190E-03  0.190E-03
 27.373  0.189E-03  0.189E-03
 27.383  0.186E-03  0.186E-03
 27.393  0.181E-03  0.181E-03
 27.403  0.175E-03  0.175E-03
 27.413  0.168E-03  0.168E-03
 27.423  0.160E-03  0.160E-03
 27.433  0.150E-03  0.150E-03
 27.443  0.140E-03  0.140E-03
 27.453  0.129E-03  0.129E-03
 27.463  0.118E-03  0.118E-03
 27.473  0.107E-03  0.107E-03
 27.483  0.966E-04  0.966E-04
 27.493  0.861E-04  0.861E-04
 27.503  0.760E-04  0.760E-04
 27.513  0.664E-04  0.664E-04
 27.523  0.575E-04  0.575E-04
 27.533  0.494E-04  0.494E-04
 27.543  0.420E-04  0.420E-04
 27.553  0.353E-04  0.353E-04
 27.563  0.295E-04  0.295E-04
 27.573  0.243E-04  0.243E-04
 27.583  0.199E-04  0.199E-04
 27.593  0.161E-04  0.161E-04
 27.603  0.129E-04  0.129E-04
 27.613  0.103E-04  0.103E-04
 27.623  0.809E-05  0.809E-05
 27.633  0.630E-05  0.630E-05
 27.643  0.486E-05  0.486E-05
 27.653  0.371E-05  0.371E-05
 27.663  0.281E-05  0.281E-05
 27.673  0.210E-05  0.210E-05
 27.683  0.156E-05  0.156E-05
 27.693  0.114E-05  0.114E-05
 27.703  0.830E-06  0.830E-06
 27.713  0.597E-06  0.597E-06
 27.723  0.425E-06  0.425E-06
 27.733  0.299E-06  0.299E-06
 27.743  0.209E-06  0.209E-06
 27.753  0.144E-06  0.144E-06
 27.763  0.984E-07  0.984E-07
 27.773  0.666E-07  0.666E-07
 27.783  0.446E-07  0.446E-07
 27.793  0.296E-07  0.296E-07
 27.803  0.195E-07  0.195E-07
 27.813  0.127E-07  0.127E-07
 27.823  0.818E-08  0.818E-08
 27.833  0.524E-08  0.524E-08
 27.843  0.333E-08  0.333E-08
 27.853  0.210E-08  0.210E-08
 27.863  0.132E-08  0.132E-08
 27.873  0.822E-09  0.822E-09
 27.883  0.512E-09  0.512E-09
 27.893  0.318E-09  0.318E-09
 27.903  0.198E-09  0.198E-09
 27.913  0.124E-09  0.124E-09
 27.923  0.775E-10  0.775E-10
 27.933  0.490E-10  0.490E-10
 27.943  0.312E-10  0.312E-10
 27.953  0.200E-10  0.200E-10
 27.963  0.130E-10  0.130E-10
 27.973  0.847E-11  0.847E-11
 27.983  0.557E-11  0.557E-11
 27.993  0.368E-11  0.368E-11
 28.003  0.244E-11  0.244E-11
 28.013  0.161E-11  0.161E-11
 28.023  0.107E-11  0.107E-11
 28.033  0.705E-12  0.705E-12
 28.043  0.463E-12  0.463E-12
 28.053  0.302E-12  0.302E-12
 28.063  0.196E-12  0.196E-12
 28.073  0.126E-12  0.126E-12
 28.083  0.804E-13  0.804E-13
 28.093  0.508E-13  0.508E-13
 28.103  0.318E-13  0.318E-13
 28.113  0.195E-13  0.195E-13
 28.123  0.120E-13  0.120E-13
 28.133  0.731E-14  0.731E-14
 28.143  0.440E-14  0.440E-14
 28.153  0.262E-14  0.262E-14
 28.163  0.155E-14  0.155E-14
 28.173  0.901E-15  0.901E-15
 28.183  0.520E-15  0.520E-15
 28.193  0.296E-15  0.296E-15
 28.203  0.167E-15  0.167E-15
 28.213  0.934E-16  0.934E-16
 28.223  0.516E-16  0.516E-16
 28.233  0.282E-16  0.282E-16
 28.243  0.153E-16  0.153E-16
