# E (eV)   ldos(E)   pdos(E)   
 -6.851  0.355E-06  0.355E-06
 -6.841  0.567E-06  0.567E-06
 -6.831  0.898E-06  0.898E-06
 -6.821  0.141E-05  0.141E-05
 -6.811  0.218E-05  0.218E-05
 -6.801  0.335E-05  0.335E-05
 -6.791  0.509E-05  0.509E-05
 -6.781  0.766E-05  0.766E-05
 -6.771  0.114E-04  0.114E-04
 -6.761  0.168E-04  0.168E-04
 -6.751  0.246E-04  0.246E-04
 -6.741  0.356E-04  0.356E-04
 -6.731  0.510E-04  0.510E-04
 -6.721  0.723E-04  0.723E-04
 -6.711  0.102E-03  0.102E-03
 -6.701  0.141E-03  0.141E-03
 -6.691  0.195E-03  0.195E-03
 -6.681  0.266E-03  0.266E-03
 -6.671  0.360E-03  0.360E-03
 -6.661  0.482E-03  0.482E-03
 -6.651  0.640E-03  0.640E-03
 -6.641  0.842E-03  0.842E-03
 -6.631  0.110E-02  0.110E-02
 -6.621  0.142E-02  0.142E-02
 -6.611  0.181E-02  0.181E-02
 -6.601  0.230E-02  0.230E-02
 -6.591  0.289E-02  0.289E-02
 -6.581  0.361E-02  0.361E-02
 -6.571  0.446E-02  0.446E-02
 -6.561  0.546E-02  0.546E-02
 -6.551  0.663E-02  0.663E-02
 -6.541  0.800E-02  0.800E-02
 -6.531  0.956E-02  0.956E-02
 -6.521  0.113E-01  0.113E-01
 -6.511  0.133E-01  0.133E-01
 -6.501  0.156E-01  0.156E-01
 -6.491  0.181E-01  0.181E-01
 -6.481  0.208E-01  0.208E-01
 -6.471  0.238E-01  0.238E-01
 -6.461  0.270E-01  0.270E-01
 -6.451  0.304E-01  0.304E-01
 -6.441  0.341E-01  0.341E-01
 -6.431  0.380E-01  0.380E-01
 -6.421  0.420E-01  0.420E-01
 -6.411  0.463E-01  0.463E-01
 -6.401  0.507E-01  0.507E-01
 -6.391  0.552E-01  0.552E-01
 -6.381  0.598E-01  0.598E-01
 -6.371  0.645E-01  0.645E-01
 -6.361  0.693E-01  0.693E-01
 -6.351  0.741E-01  0.741E-01
 -6.341  0.790E-01  0.790E-01
 -6.331  0.839E-01  0.839E-01
 -6.321  0.888E-01  0.888E-01
 -6.311  0.937E-01  0.937E-01
 -6.301  0.986E-01  0.986E-01
 -6.291  0.103E+00  0.103E+00
 -6.281  0.108E+00  0.108E+00
 -6.271  0.113E+00  0.113E+00
 -6.261  0.118E+00  0.118E+00
 -6.251  0.123E+00  0.123E+00
 -6.241  0.128E+00  0.128E+00
 -6.231  0.133E+00  0.133E+00
 -6.221  0.138E+00  0.138E+00
 -6.211  0.143E+00  0.143E+00
 -6.201  0.148E+00  0.148E+00
 -6.191  0.153E+00  0.153E+00
 -6.181  0.158E+00  0.158E+00
 -6.171  0.163E+00  0.163E+00
 -6.161  0.169E+00  0.169E+00
 -6.151  0.174E+00  0.174E+00
 -6.141  0.180E+00  0.180E+00
 -6.131  0.186E+00  0.186E+00
 -6.121  0.191E+00  0.191E+00
 -6.111  0.197E+00  0.197E+00
 -6.101  0.204E+00  0.204E+00
 -6.091  0.210E+00  0.210E+00
 -6.081  0.217E+00  0.217E+00
 -6.071  0.224E+00  0.224E+00
 -6.061  0.231E+00  0.231E+00
 -6.051  0.238E+00  0.238E+00
 -6.041  0.246E+00  0.246E+00
 -6.031  0.254E+00  0.254E+00
 -6.021  0.262E+00  0.262E+00
 -6.011  0.271E+00  0.271E+00
 -6.001  0.280E+00  0.280E+00
 -5.991  0.289E+00  0.289E+00
 -5.981  0.299E+00  0.299E+00
 -5.971  0.310E+00  0.310E+00
 -5.961  0.321E+00  0.321E+00
 -5.951  0.333E+00  0.333E+00
 -5.941  0.345E+00  0.345E+00
 -5.931  0.359E+00  0.359E+00
 -5.921  0.373E+00  0.373E+00
 -5.911  0.388E+00  0.388E+00
 -5.901  0.405E+00  0.405E+00
 -5.891  0.422E+00  0.422E+00
 -5.881  0.441E+00  0.441E+00
 -5.871  0.462E+00  0.462E+00
 -5.861  0.484E+00  0.484E+00
 -5.851  0.508E+00  0.508E+00
 -5.841  0.535E+00  0.535E+00
 -5.831  0.563E+00  0.563E+00
 -5.821  0.595E+00  0.595E+00
 -5.811  0.629E+00  0.629E+00
 -5.801  0.666E+00  0.666E+00
 -5.791  0.707E+00  0.707E+00
 -5.781  0.751E+00  0.751E+00
 -5.771  0.799E+00  0.799E+00
 -5.761  0.851E+00  0.851E+00
 -5.751  0.908E+00  0.908E+00
 -5.741  0.969E+00  0.969E+00
 -5.731  0.103E+01  0.103E+01
 -5.721  0.110E+01  0.110E+01
 -5.711  0.118E+01  0.118E+01
 -5.701  0.126E+01  0.126E+01
 -5.691  0.134E+01  0.134E+01
 -5.681  0.143E+01  0.143E+01
 -5.671  0.152E+01  0.152E+01
 -5.661  0.161E+01  0.161E+01
 -5.651  0.170E+01  0.170E+01
 -5.641  0.179E+01  0.179E+01
 -5.631  0.188E+01  0.188E+01
 -5.621  0.197E+01  0.197E+01
 -5.611  0.205E+01  0.205E+01
 -5.601  0.213E+01  0.213E+01
 -5.591  0.220E+01  0.220E+01
 -5.581  0.226E+01  0.226E+01
 -5.571  0.231E+01  0.231E+01
 -5.561  0.235E+01  0.235E+01
 -5.551  0.237E+01  0.237E+01
 -5.541  0.238E+01  0.238E+01
 -5.531  0.237E+01  0.237E+01
 -5.521  0.234E+01  0.234E+01
 -5.511  0.230E+01  0.230E+01
 -5.501  0.224E+01  0.224E+01
 -5.491  0.217E+01  0.217E+01
 -5.481  0.208E+01  0.208E+01
 -5.471  0.198E+01  0.198E+01
 -5.461  0.187E+01  0.187E+01
 -5.451  0.175E+01  0.175E+01
 -5.441  0.163E+01  0.163E+01
 -5.431  0.150E+01  0.150E+01
 -5.421  0.136E+01  0.136E+01
 -5.411  0.123E+01  0.123E+01
 -5.401  0.110E+01  0.110E+01
 -5.391  0.980E+00  0.980E+00
 -5.381  0.861E+00  0.861E+00
 -5.371  0.750E+00  0.750E+00
 -5.361  0.647E+00  0.647E+00
 -5.351  0.552E+00  0.552E+00
 -5.341  0.467E+00  0.467E+00
 -5.331  0.391E+00  0.391E+00
 -5.321  0.325E+00  0.325E+00
 -5.311  0.267E+00  0.267E+00
 -5.301  0.217E+00  0.217E+00
 -5.291  0.175E+00  0.175E+00
 -5.281  0.139E+00  0.139E+00
 -5.271  0.110E+00  0.110E+00
 -5.261  0.857E-01  0.857E-01
 -5.251  0.663E-01  0.663E-01
 -5.241  0.507E-01  0.507E-01
 -5.231  0.384E-01  0.384E-01
 -5.221  0.288E-01  0.288E-01
 -5.211  0.214E-01  0.214E-01
 -5.201  0.157E-01  0.157E-01
 -5.191  0.114E-01  0.114E-01
 -5.181  0.820E-02  0.820E-02
 -5.171  0.584E-02  0.584E-02
 -5.161  0.412E-02  0.412E-02
 -5.151  0.287E-02  0.287E-02
 -5.141  0.198E-02  0.198E-02
 -5.131  0.135E-02  0.135E-02
 -5.121  0.913E-03  0.913E-03
 -5.111  0.611E-03  0.611E-03
 -5.101  0.404E-03  0.404E-03
 -5.091  0.264E-03  0.264E-03
 -5.081  0.171E-03  0.171E-03
 -5.071  0.110E-03  0.110E-03
 -5.061  0.697E-04  0.697E-04
 -5.051  0.437E-04  0.437E-04
 -5.041  0.272E-04  0.272E-04
 -5.031  0.167E-04  0.167E-04
 -5.021  0.101E-04  0.101E-04
 -5.011  0.610E-05  0.610E-05
 -5.001  0.363E-05  0.363E-05
 -4.991  0.214E-05  0.214E-05
 -4.981  0.125E-05  0.125E-05
 -4.971  0.719E-06  0.719E-06
 -4.961  0.410E-06  0.410E-06
 -4.951  0.232E-06  0.232E-06
 -4.941  0.129E-06  0.129E-06
 -4.931  0.715E-07  0.715E-07
 -4.921  0.391E-07  0.391E-07
 -4.911  0.211E-07  0.211E-07
 -4.901  0.113E-07  0.113E-07
 -4.891  0.599E-08  0.599E-08
 -4.881  0.314E-08  0.314E-08
 -4.871  0.163E-08  0.163E-08
 -4.861  0.833E-09  0.833E-09
 -4.851  0.422E-09  0.422E-09
 -4.841  0.212E-09  0.212E-09
 -4.831  0.105E-09  0.105E-09
 -4.821  0.510E-10  0.510E-10
 -4.811  0.244E-10  0.244E-10
 -4.801  0.110E-10  0.110E-10
 -4.791  0.433E-11  0.433E-11
 -4.781  0.397E-12  0.397E-12
 -4.771  0.482E-14  0.482E-14
 -4.761  0.111E-13  0.111E-13
 -4.751  0.242E-13  0.242E-13
 -4.741  0.506E-13  0.506E-13
 -4.731  0.102E-12  0.102E-12
 -4.721  0.205E-12  0.205E-12
 -4.711  0.405E-12  0.405E-12
 -4.701  0.789E-12  0.789E-12
 -4.691  0.152E-11  0.152E-11
 -4.681  0.289E-11  0.289E-11
 -4.671  0.546E-11  0.546E-11
 -4.661  0.102E-10  0.102E-10
 -4.651  0.188E-10  0.188E-10
 -4.641  0.344E-10  0.344E-10
 -4.631  0.623E-10  0.623E-10
 -4.621  0.112E-09  0.112E-09
 -4.611  0.198E-09  0.198E-09
 -4.601  0.348E-09  0.348E-09
 -4.591  0.605E-09  0.605E-09
 -4.581  0.104E-08  0.104E-08
 -4.571  0.178E-08  0.178E-08
 -4.561  0.300E-08  0.300E-08
 -4.551  0.502E-08  0.502E-08
 -4.541  0.830E-08  0.830E-08
 -4.531  0.136E-07  0.136E-07
 -4.521  0.221E-07  0.221E-07
 -4.511  0.355E-07  0.355E-07
 -4.501  0.565E-07  0.565E-07
 -4.491  0.891E-07  0.891E-07
 -4.481  0.139E-06  0.139E-06
 -4.471  0.215E-06  0.215E-06
 -4.461  0.329E-06  0.329E-06
 -4.451  0.499E-06  0.499E-06
 -4.441  0.749E-06  0.749E-06
 -4.431  0.111E-05  0.111E-05
 -4.421  0.164E-05  0.164E-05
 -4.411  0.240E-05  0.240E-05
 -4.401  0.347E-05  0.347E-05
 -4.391  0.496E-05  0.496E-05
 -4.381  0.705E-05  0.705E-05
 -4.371  0.990E-05  0.990E-05
 -4.361  0.138E-04  0.138E-04
 -4.351  0.190E-04  0.190E-04
 -4.341  0.260E-04  0.260E-04
 -4.331  0.353E-04  0.353E-04
 -4.321  0.474E-04  0.474E-04
 -4.311  0.630E-04  0.630E-04
 -4.301  0.832E-04  0.832E-04
 -4.291  0.109E-03  0.109E-03
 -4.281  0.141E-03  0.141E-03
 -4.271  0.181E-03  0.181E-03
 -4.261  0.231E-03  0.231E-03
 -4.251  0.291E-03  0.291E-03
 -4.241  0.365E-03  0.365E-03
 -4.231  0.453E-03  0.453E-03
 -4.221  0.559E-03  0.559E-03
 -4.211  0.683E-03  0.683E-03
 -4.201  0.828E-03  0.828E-03
 -4.191  0.996E-03  0.996E-03
 -4.181  0.119E-02  0.119E-02
 -4.171  0.141E-02  0.141E-02
 -4.161  0.166E-02  0.166E-02
 -4.151  0.193E-02  0.193E-02
 -4.141  0.224E-02  0.224E-02
 -4.131  0.258E-02  0.258E-02
 -4.121  0.295E-02  0.295E-02
 -4.111  0.335E-02  0.335E-02
 -4.101  0.378E-02  0.378E-02
 -4.091  0.423E-02  0.423E-02
 -4.081  0.472E-02  0.472E-02
 -4.071  0.522E-02  0.522E-02
 -4.061  0.574E-02  0.574E-02
 -4.051  0.628E-02  0.628E-02
 -4.041  0.682E-02  0.682E-02
 -4.031  0.738E-02  0.738E-02
 -4.021  0.794E-02  0.794E-02
 -4.011  0.849E-02  0.849E-02
 -4.001  0.904E-02  0.904E-02
 -3.991  0.957E-02  0.957E-02
 -3.981  0.101E-01  0.101E-01
 -3.971  0.106E-01  0.106E-01
 -3.961  0.111E-01  0.111E-01
 -3.951  0.115E-01  0.115E-01
 -3.941  0.120E-01  0.120E-01
 -3.931  0.124E-01  0.124E-01
 -3.921  0.128E-01  0.128E-01
 -3.911  0.131E-01  0.131E-01
 -3.901  0.135E-01  0.135E-01
 -3.891  0.138E-01  0.138E-01
 -3.881  0.142E-01  0.142E-01
 -3.871  0.145E-01  0.145E-01
 -3.861  0.148E-01  0.148E-01
 -3.851  0.152E-01  0.152E-01
 -3.841  0.155E-01  0.155E-01
 -3.831  0.159E-01  0.159E-01
 -3.821  0.163E-01  0.163E-01
 -3.811  0.167E-01  0.167E-01
 -3.801  0.171E-01  0.171E-01
 -3.791  0.176E-01  0.176E-01
 -3.781  0.181E-01  0.181E-01
 -3.771  0.187E-01  0.187E-01
 -3.761  0.193E-01  0.193E-01
 -3.751  0.199E-01  0.199E-01
 -3.741  0.206E-01  0.206E-01
 -3.731  0.213E-01  0.213E-01
 -3.721  0.221E-01  0.221E-01
 -3.711  0.228E-01  0.228E-01
 -3.701  0.237E-01  0.237E-01
 -3.691  0.245E-01  0.245E-01
 -3.681  0.254E-01  0.254E-01
 -3.671  0.263E-01  0.263E-01
 -3.661  0.272E-01  0.272E-01
 -3.651  0.281E-01  0.281E-01
 -3.641  0.291E-01  0.291E-01
 -3.631  0.300E-01  0.300E-01
 -3.621  0.310E-01  0.310E-01
 -3.611  0.320E-01  0.320E-01
 -3.601  0.329E-01  0.329E-01
 -3.591  0.339E-01  0.339E-01
 -3.581  0.349E-01  0.349E-01
 -3.571  0.359E-01  0.359E-01
 -3.561  0.370E-01  0.370E-01
 -3.551  0.380E-01  0.380E-01
 -3.541  0.391E-01  0.391E-01
 -3.531  0.401E-01  0.401E-01
 -3.521  0.412E-01  0.412E-01
 -3.511  0.423E-01  0.423E-01
 -3.501  0.435E-01  0.435E-01
 -3.491  0.446E-01  0.446E-01
 -3.481  0.458E-01  0.458E-01
 -3.471  0.470E-01  0.470E-01
 -3.461  0.481E-01  0.481E-01
 -3.451  0.493E-01  0.493E-01
 -3.441  0.505E-01  0.505E-01
 -3.431  0.517E-01  0.517E-01
 -3.421  0.529E-01  0.529E-01
 -3.411  0.541E-01  0.541E-01
 -3.401  0.553E-01  0.553E-01
 -3.391  0.564E-01  0.564E-01
 -3.381  0.576E-01  0.576E-01
 -3.371  0.588E-01  0.588E-01
 -3.361  0.600E-01  0.600E-01
 -3.351  0.612E-01  0.612E-01
 -3.341  0.624E-01  0.624E-01
 -3.331  0.636E-01  0.636E-01
 -3.321  0.649E-01  0.649E-01
 -3.311  0.662E-01  0.662E-01
 -3.301  0.676E-01  0.676E-01
 -3.291  0.690E-01  0.690E-01
 -3.281  0.704E-01  0.704E-01
 -3.271  0.719E-01  0.719E-01
 -3.261  0.735E-01  0.735E-01
 -3.251  0.750E-01  0.750E-01
 -3.241  0.767E-01  0.767E-01
 -3.231  0.783E-01  0.783E-01
 -3.221  0.800E-01  0.800E-01
 -3.211  0.816E-01  0.816E-01
 -3.201  0.833E-01  0.833E-01
 -3.191  0.850E-01  0.850E-01
 -3.181  0.866E-01  0.866E-01
 -3.171  0.882E-01  0.882E-01
 -3.161  0.898E-01  0.898E-01
 -3.151  0.914E-01  0.914E-01
 -3.141  0.930E-01  0.930E-01
 -3.131  0.946E-01  0.946E-01
 -3.121  0.962E-01  0.962E-01
 -3.111  0.978E-01  0.978E-01
 -3.101  0.995E-01  0.995E-01
 -3.091  0.101E+00  0.101E+00
 -3.081  0.103E+00  0.103E+00
 -3.071  0.105E+00  0.105E+00
 -3.061  0.107E+00  0.107E+00
 -3.051  0.109E+00  0.109E+00
 -3.041  0.111E+00  0.111E+00
 -3.031  0.113E+00  0.113E+00
 -3.021  0.115E+00  0.115E+00
 -3.011  0.118E+00  0.118E+00
 -3.001  0.120E+00  0.120E+00
 -2.991  0.123E+00  0.123E+00
 -2.981  0.125E+00  0.125E+00
 -2.971  0.128E+00  0.128E+00
 -2.961  0.131E+00  0.131E+00
 -2.951  0.133E+00  0.133E+00
 -2.941  0.136E+00  0.136E+00
 -2.931  0.139E+00  0.139E+00
 -2.921  0.142E+00  0.142E+00
 -2.911  0.144E+00  0.144E+00
 -2.901  0.147E+00  0.147E+00
 -2.891  0.150E+00  0.150E+00
 -2.881  0.153E+00  0.153E+00
 -2.871  0.156E+00  0.156E+00
 -2.861  0.159E+00  0.159E+00
 -2.851  0.163E+00  0.163E+00
 -2.841  0.166E+00  0.166E+00
 -2.831  0.170E+00  0.170E+00
 -2.821  0.173E+00  0.173E+00
 -2.811  0.177E+00  0.177E+00
 -2.801  0.181E+00  0.181E+00
 -2.791  0.185E+00  0.185E+00
 -2.781  0.190E+00  0.190E+00
 -2.771  0.195E+00  0.195E+00
 -2.761  0.199E+00  0.199E+00
 -2.751  0.204E+00  0.204E+00
 -2.741  0.210E+00  0.210E+00
 -2.731  0.215E+00  0.215E+00
 -2.721  0.221E+00  0.221E+00
 -2.711  0.226E+00  0.226E+00
 -2.701  0.232E+00  0.232E+00
 -2.691  0.237E+00  0.237E+00
 -2.681  0.243E+00  0.243E+00
 -2.671  0.248E+00  0.248E+00
 -2.661  0.254E+00  0.254E+00
 -2.651  0.259E+00  0.259E+00
 -2.641  0.264E+00  0.264E+00
 -2.631  0.269E+00  0.269E+00
 -2.621  0.274E+00  0.274E+00
 -2.611  0.279E+00  0.279E+00
 -2.601  0.283E+00  0.283E+00
 -2.591  0.287E+00  0.287E+00
 -2.581  0.291E+00  0.291E+00
 -2.571  0.295E+00  0.295E+00
 -2.561  0.299E+00  0.299E+00
 -2.551  0.303E+00  0.303E+00
 -2.541  0.307E+00  0.307E+00
 -2.531  0.311E+00  0.311E+00
 -2.521  0.314E+00  0.314E+00
 -2.511  0.318E+00  0.318E+00
 -2.501  0.322E+00  0.322E+00
 -2.491  0.325E+00  0.325E+00
 -2.481  0.328E+00  0.328E+00
 -2.471  0.331E+00  0.331E+00
 -2.461  0.335E+00  0.335E+00
 -2.451  0.338E+00  0.338E+00
 -2.441  0.341E+00  0.341E+00
 -2.431  0.344E+00  0.344E+00
 -2.421  0.346E+00  0.346E+00
 -2.411  0.349E+00  0.349E+00
 -2.401  0.352E+00  0.352E+00
 -2.391  0.355E+00  0.355E+00
 -2.381  0.358E+00  0.358E+00
 -2.371  0.361E+00  0.361E+00
 -2.361  0.364E+00  0.364E+00
 -2.351  0.368E+00  0.368E+00
 -2.341  0.371E+00  0.371E+00
 -2.331  0.375E+00  0.375E+00
 -2.321  0.379E+00  0.379E+00
 -2.311  0.383E+00  0.383E+00
 -2.301  0.388E+00  0.388E+00
 -2.291  0.392E+00  0.392E+00
 -2.281  0.397E+00  0.397E+00
 -2.271  0.402E+00  0.402E+00
 -2.261  0.408E+00  0.408E+00
 -2.251  0.413E+00  0.413E+00
 -2.241  0.419E+00  0.419E+00
 -2.231  0.425E+00  0.425E+00
 -2.221  0.431E+00  0.431E+00
 -2.211  0.437E+00  0.437E+00
 -2.201  0.443E+00  0.443E+00
 -2.191  0.449E+00  0.449E+00
 -2.181  0.455E+00  0.455E+00
 -2.171  0.460E+00  0.460E+00
 -2.161  0.466E+00  0.466E+00
 -2.151  0.470E+00  0.470E+00
 -2.141  0.474E+00  0.474E+00
 -2.131  0.478E+00  0.478E+00
 -2.121  0.480E+00  0.480E+00
 -2.111  0.481E+00  0.481E+00
 -2.101  0.481E+00  0.481E+00
 -2.091  0.480E+00  0.480E+00
 -2.081  0.477E+00  0.477E+00
 -2.071  0.473E+00  0.473E+00
 -2.061  0.467E+00  0.467E+00
 -2.051  0.459E+00  0.459E+00
 -2.041  0.450E+00  0.450E+00
 -2.031  0.439E+00  0.439E+00
 -2.021  0.426E+00  0.426E+00
 -2.011  0.412E+00  0.412E+00
 -2.001  0.396E+00  0.396E+00
 -1.991  0.379E+00  0.379E+00
 -1.981  0.360E+00  0.360E+00
 -1.971  0.341E+00  0.341E+00
 -1.961  0.321E+00  0.321E+00
 -1.951  0.300E+00  0.300E+00
 -1.941  0.279E+00  0.279E+00
 -1.931  0.258E+00  0.258E+00
 -1.921  0.237E+00  0.237E+00
 -1.911  0.216E+00  0.216E+00
 -1.901  0.196E+00  0.196E+00
 -1.891  0.176E+00  0.176E+00
 -1.881  0.158E+00  0.158E+00
 -1.871  0.140E+00  0.140E+00
 -1.861  0.123E+00  0.123E+00
 -1.851  0.108E+00  0.108E+00
 -1.841  0.937E-01  0.937E-01
 -1.831  0.808E-01  0.808E-01
 -1.821  0.692E-01  0.692E-01
 -1.811  0.587E-01  0.587E-01
 -1.801  0.495E-01  0.495E-01
 -1.791  0.413E-01  0.413E-01
 -1.781  0.343E-01  0.343E-01
 -1.771  0.282E-01  0.282E-01
 -1.761  0.230E-01  0.230E-01
 -1.751  0.186E-01  0.186E-01
 -1.741  0.149E-01  0.149E-01
 -1.731  0.119E-01  0.119E-01
 -1.721  0.935E-02  0.935E-02
 -1.711  0.731E-02  0.731E-02
 -1.701  0.566E-02  0.566E-02
 -1.691  0.435E-02  0.435E-02
 -1.681  0.331E-02  0.331E-02
 -1.671  0.250E-02  0.250E-02
 -1.661  0.187E-02  0.187E-02
 -1.651  0.138E-02  0.138E-02
 -1.641  0.101E-02  0.101E-02
 -1.631  0.737E-03  0.737E-03
 -1.621  0.531E-03  0.531E-03
 -1.611  0.379E-03  0.379E-03
 -1.601  0.268E-03  0.268E-03
 -1.591  0.187E-03  0.187E-03
 -1.581  0.130E-03  0.130E-03
 -1.571  0.892E-04  0.892E-04
 -1.561  0.607E-04  0.607E-04
 -1.551  0.409E-04  0.409E-04
 -1.541  0.273E-04  0.273E-04
 -1.531  0.180E-04  0.180E-04
 -1.521  0.118E-04  0.118E-04
 -1.511  0.762E-05  0.762E-05
 -1.501  0.489E-05  0.489E-05
 -1.491  0.310E-05  0.310E-05
 -1.481  0.195E-05  0.195E-05
 -1.471  0.121E-05  0.121E-05
 -1.461  0.748E-06  0.748E-06
 -1.451  0.456E-06  0.456E-06
 -1.441  0.275E-06  0.275E-06
 -1.431  0.165E-06  0.165E-06
 -1.421  0.973E-07  0.973E-07
 -1.411  0.570E-07  0.570E-07
 -1.401  0.330E-07  0.330E-07
 -1.391  0.190E-07  0.190E-07
 -1.381  0.108E-07  0.108E-07
 -1.371  0.605E-08  0.605E-08
 -1.361  0.337E-08  0.337E-08
 -1.351  0.186E-08  0.186E-08
 -1.341  0.101E-08  0.101E-08
 -1.331  0.545E-09  0.545E-09
 -1.321  0.291E-09  0.291E-09
 -1.311  0.154E-09  0.154E-09
 -1.301  0.804E-10  0.804E-10
 -1.291  0.415E-10  0.415E-10
 -1.281  0.212E-10  0.212E-10
 -1.271  0.107E-10  0.107E-10
 -1.261  0.535E-11  0.535E-11
 -1.251  0.259E-11  0.259E-11
 -1.241  0.126E-11  0.126E-11
 -1.231  0.588E-12  0.588E-12
 -1.221  0.254E-12  0.254E-12
 -1.211  0.894E-13  0.894E-13
 -1.201  0.301E-13  0.301E-13
 -1.191  0.747E-14  0.747E-14
 -1.181  0.000E+00  0.000E+00
 -1.171  0.000E+00  0.000E+00
 -1.161  0.000E+00  0.000E+00
 -1.151  0.000E+00  0.000E+00
 -1.141  0.000E+00  0.000E+00
 -1.131  0.000E+00  0.000E+00
 -1.121  0.000E+00  0.000E+00
 -1.111  0.000E+00  0.000E+00
 -1.101  0.000E+00  0.000E+00
 -1.091  0.000E+00  0.000E+00
 -1.081  0.000E+00  0.000E+00
 -1.071  0.000E+00  0.000E+00
 -1.061  0.000E+00  0.000E+00
 -1.051  0.000E+00  0.000E+00
 -1.041  0.000E+00  0.000E+00
 -1.031  0.000E+00  0.000E+00
 -1.021  0.000E+00  0.000E+00
 -1.011  0.000E+00  0.000E+00
 -1.001  0.000E+00  0.000E+00
 -0.991  0.000E+00  0.000E+00
 -0.981  0.000E+00  0.000E+00
 -0.971  0.000E+00  0.000E+00
 -0.961  0.000E+00  0.000E+00
 -0.951  0.000E+00  0.000E+00
 -0.941  0.000E+00  0.000E+00
 -0.931  0.000E+00  0.000E+00
 -0.921  0.000E+00  0.000E+00
 -0.911  0.000E+00  0.000E+00
 -0.901  0.000E+00  0.000E+00
 -0.891  0.000E+00  0.000E+00
 -0.881  0.000E+00  0.000E+00
 -0.871  0.000E+00  0.000E+00
 -0.861  0.000E+00  0.000E+00
 -0.851  0.000E+00  0.000E+00
 -0.841  0.000E+00  0.000E+00
 -0.831  0.000E+00  0.000E+00
 -0.821  0.000E+00  0.000E+00
 -0.811  0.000E+00  0.000E+00
 -0.801  0.000E+00  0.000E+00
 -0.791  0.000E+00  0.000E+00
 -0.781  0.000E+00  0.000E+00
 -0.771  0.000E+00  0.000E+00
 -0.761  0.000E+00  0.000E+00
 -0.751  0.000E+00  0.000E+00
 -0.741  0.000E+00  0.000E+00
 -0.731  0.000E+00  0.000E+00
 -0.721  0.000E+00  0.000E+00
 -0.711  0.000E+00  0.000E+00
 -0.701  0.000E+00  0.000E+00
 -0.691  0.000E+00  0.000E+00
 -0.681  0.000E+00  0.000E+00
 -0.671  0.000E+00  0.000E+00
 -0.661  0.000E+00  0.000E+00
 -0.651  0.000E+00  0.000E+00
 -0.641  0.000E+00  0.000E+00
 -0.631  0.000E+00  0.000E+00
 -0.621  0.000E+00  0.000E+00
 -0.611  0.000E+00  0.000E+00
 -0.601  0.000E+00  0.000E+00
 -0.591  0.000E+00  0.000E+00
 -0.581  0.000E+00  0.000E+00
 -0.571  0.000E+00  0.000E+00
 -0.561  0.000E+00  0.000E+00
 -0.551  0.000E+00  0.000E+00
 -0.541  0.000E+00  0.000E+00
 -0.531  0.000E+00  0.000E+00
 -0.521  0.000E+00  0.000E+00
 -0.511  0.000E+00  0.000E+00
 -0.501  0.000E+00  0.000E+00
 -0.491  0.000E+00  0.000E+00
 -0.481  0.000E+00  0.000E+00
 -0.471  0.000E+00  0.000E+00
 -0.461  0.000E+00  0.000E+00
 -0.451  0.000E+00  0.000E+00
 -0.441  0.000E+00  0.000E+00
 -0.431  0.000E+00  0.000E+00
 -0.421  0.000E+00  0.000E+00
 -0.411  0.000E+00  0.000E+00
 -0.401  0.000E+00  0.000E+00
 -0.391  0.000E+00  0.000E+00
 -0.381  0.000E+00  0.000E+00
 -0.371  0.000E+00  0.000E+00
 -0.361  0.000E+00  0.000E+00
 -0.351  0.000E+00  0.000E+00
 -0.341  0.000E+00  0.000E+00
 -0.331  0.000E+00  0.000E+00
 -0.321  0.000E+00  0.000E+00
 -0.311  0.000E+00  0.000E+00
 -0.301  0.000E+00  0.000E+00
 -0.291  0.000E+00  0.000E+00
 -0.281  0.000E+00  0.000E+00
 -0.271  0.000E+00  0.000E+00
 -0.261  0.000E+00  0.000E+00
 -0.251  0.000E+00  0.000E+00
 -0.241  0.000E+00  0.000E+00
 -0.231  0.000E+00  0.000E+00
 -0.221  0.000E+00  0.000E+00
 -0.211  0.000E+00  0.000E+00
 -0.201  0.000E+00  0.000E+00
 -0.191  0.000E+00  0.000E+00
 -0.181  0.000E+00  0.000E+00
 -0.171  0.000E+00  0.000E+00
 -0.161  0.000E+00  0.000E+00
 -0.151  0.000E+00  0.000E+00
 -0.141  0.000E+00  0.000E+00
 -0.131  0.000E+00  0.000E+00
 -0.121  0.000E+00  0.000E+00
 -0.111  0.000E+00  0.000E+00
 -0.101  0.000E+00  0.000E+00
 -0.091  0.000E+00  0.000E+00
 -0.081  0.000E+00  0.000E+00
 -0.071  0.000E+00  0.000E+00
 -0.061  0.000E+00  0.000E+00
 -0.051  0.000E+00  0.000E+00
 -0.041  0.000E+00  0.000E+00
 -0.031  0.000E+00  0.000E+00
 -0.021  0.000E+00  0.000E+00
 -0.011  0.000E+00  0.000E+00
 -0.001  0.000E+00  0.000E+00
  0.009  0.000E+00  0.000E+00
  0.019  0.000E+00  0.000E+00
  0.029  0.000E+00  0.000E+00
  0.039  0.000E+00  0.000E+00
  0.049  0.000E+00  0.000E+00
  0.059  0.000E+00  0.000E+00
  0.069  0.000E+00  0.000E+00
  0.079  0.000E+00  0.000E+00
  0.089  0.000E+00  0.000E+00
  0.099  0.000E+00  0.000E+00
  0.109  0.000E+00  0.000E+00
  0.119  0.000E+00  0.000E+00
  0.129  0.000E+00  0.000E+00
  0.139  0.000E+00  0.000E+00
  0.149  0.000E+00  0.000E+00
  0.159  0.000E+00  0.000E+00
  0.169  0.000E+00  0.000E+00
  0.179  0.000E+00  0.000E+00
  0.189  0.000E+00  0.000E+00
  0.199  0.000E+00  0.000E+00
  0.209  0.000E+00  0.000E+00
  0.219  0.000E+00  0.000E+00
  0.229  0.000E+00  0.000E+00
  0.239  0.000E+00  0.000E+00
  0.249  0.000E+00  0.000E+00
  0.259  0.000E+00  0.000E+00
  0.269  0.000E+00  0.000E+00
  0.279  0.000E+00  0.000E+00
  0.289  0.000E+00  0.000E+00
  0.299  0.000E+00  0.000E+00
  0.309  0.000E+00  0.000E+00
  0.319  0.000E+00  0.000E+00
  0.329  0.000E+00  0.000E+00
  0.339  0.000E+00  0.000E+00
  0.349  0.000E+00  0.000E+00
  0.359  0.000E+00  0.000E+00
  0.369  0.000E+00  0.000E+00
  0.379  0.000E+00  0.000E+00
  0.389  0.000E+00  0.000E+00
  0.399  0.000E+00  0.000E+00
  0.409  0.000E+00  0.000E+00
  0.419  0.000E+00  0.000E+00
  0.429  0.000E+00  0.000E+00
  0.439  0.000E+00  0.000E+00
  0.449  0.000E+00  0.000E+00
  0.459  0.000E+00  0.000E+00
  0.469  0.000E+00  0.000E+00
  0.479  0.000E+00  0.000E+00
  0.489  0.000E+00  0.000E+00
  0.499  0.000E+00  0.000E+00
  0.509  0.000E+00  0.000E+00
  0.519  0.000E+00  0.000E+00
  0.529  0.000E+00  0.000E+00
  0.539  0.000E+00  0.000E+00
  0.549  0.000E+00  0.000E+00
  0.559  0.000E+00  0.000E+00
  0.569  0.000E+00  0.000E+00
  0.579  0.000E+00  0.000E+00
  0.589  0.000E+00  0.000E+00
  0.599  0.000E+00  0.000E+00
  0.609  0.000E+00  0.000E+00
  0.619  0.000E+00  0.000E+00
  0.629  0.000E+00  0.000E+00
  0.639  0.000E+00  0.000E+00
  0.649  0.000E+00  0.000E+00
  0.659  0.000E+00  0.000E+00
  0.669  0.000E+00  0.000E+00
  0.679  0.000E+00  0.000E+00
  0.689  0.000E+00  0.000E+00
  0.699  0.000E+00  0.000E+00
  0.709  0.000E+00  0.000E+00
  0.719  0.000E+00  0.000E+00
  0.729  0.000E+00  0.000E+00
  0.739  0.000E+00  0.000E+00
  0.749  0.000E+00  0.000E+00
  0.759  0.000E+00  0.000E+00
  0.769  0.000E+00  0.000E+00
  0.779  0.000E+00  0.000E+00
  0.789  0.000E+00  0.000E+00
  0.799  0.000E+00  0.000E+00
  0.809  0.000E+00  0.000E+00
  0.819  0.000E+00  0.000E+00
  0.829  0.000E+00  0.000E+00
  0.839  0.000E+00  0.000E+00
  0.849  0.000E+00  0.000E+00
  0.859  0.000E+00  0.000E+00
  0.869  0.000E+00  0.000E+00
  0.879  0.000E+00  0.000E+00
  0.889  0.000E+00  0.000E+00
  0.899  0.000E+00  0.000E+00
  0.909  0.000E+00  0.000E+00
  0.919  0.000E+00  0.000E+00
  0.929  0.000E+00  0.000E+00
  0.939  0.000E+00  0.000E+00
  0.949  0.000E+00  0.000E+00
  0.959  0.000E+00  0.000E+00
  0.969  0.000E+00  0.000E+00
  0.979  0.000E+00  0.000E+00
  0.989  0.000E+00  0.000E+00
  0.999  0.000E+00  0.000E+00
  1.009  0.000E+00  0.000E+00
  1.019  0.000E+00  0.000E+00
  1.029  0.000E+00  0.000E+00
  1.039  0.000E+00  0.000E+00
  1.049  0.000E+00  0.000E+00
  1.059  0.000E+00  0.000E+00
  1.069  0.000E+00  0.000E+00
  1.079  0.000E+00  0.000E+00
  1.089  0.000E+00  0.000E+00
  1.099  0.000E+00  0.000E+00
  1.109  0.000E+00  0.000E+00
  1.119  0.000E+00  0.000E+00
  1.129  0.000E+00  0.000E+00
  1.139  0.000E+00  0.000E+00
  1.149  0.000E+00  0.000E+00
  1.159  0.000E+00  0.000E+00
  1.169  0.000E+00  0.000E+00
  1.179  0.000E+00  0.000E+00
  1.189  0.000E+00  0.000E+00
  1.199  0.000E+00  0.000E+00
  1.209  0.000E+00  0.000E+00
  1.219  0.000E+00  0.000E+00
  1.229  0.000E+00  0.000E+00
  1.239  0.000E+00  0.000E+00
  1.249  0.000E+00  0.000E+00
  1.259  0.000E+00  0.000E+00
  1.269  0.000E+00  0.000E+00
  1.279  0.000E+00  0.000E+00
  1.289  0.000E+00  0.000E+00
  1.299  0.000E+00  0.000E+00
  1.309  0.000E+00  0.000E+00
  1.319  0.000E+00  0.000E+00
  1.329  0.000E+00  0.000E+00
  1.339  0.000E+00  0.000E+00
  1.349  0.000E+00  0.000E+00
  1.359  0.000E+00  0.000E+00
  1.369  0.000E+00  0.000E+00
  1.379  0.000E+00  0.000E+00
  1.389  0.000E+00  0.000E+00
  1.399  0.000E+00  0.000E+00
  1.409  0.000E+00  0.000E+00
  1.419  0.000E+00  0.000E+00
  1.429  0.000E+00  0.000E+00
  1.439  0.000E+00  0.000E+00
  1.449  0.000E+00  0.000E+00
  1.459  0.000E+00  0.000E+00
  1.469  0.000E+00  0.000E+00
  1.479  0.000E+00  0.000E+00
  1.489  0.000E+00  0.000E+00
  1.499  0.000E+00  0.000E+00
  1.509  0.000E+00  0.000E+00
  1.519  0.000E+00  0.000E+00
  1.529  0.000E+00  0.000E+00
  1.539  0.000E+00  0.000E+00
  1.549  0.000E+00  0.000E+00
  1.559  0.000E+00  0.000E+00
  1.569  0.000E+00  0.000E+00
  1.579  0.000E+00  0.000E+00
  1.589  0.000E+00  0.000E+00
  1.599  0.000E+00  0.000E+00
  1.609  0.000E+00  0.000E+00
  1.619  0.000E+00  0.000E+00
  1.629  0.000E+00  0.000E+00
  1.639  0.000E+00  0.000E+00
  1.649  0.000E+00  0.000E+00
  1.659  0.000E+00  0.000E+00
  1.669  0.000E+00  0.000E+00
  1.679  0.000E+00  0.000E+00
  1.689  0.000E+00  0.000E+00
  1.699  0.000E+00  0.000E+00
  1.709  0.000E+00  0.000E+00
  1.719  0.000E+00  0.000E+00
  1.729  0.000E+00  0.000E+00
  1.739  0.000E+00  0.000E+00
  1.749  0.494E-17  0.494E-17
  1.759  0.103E-16  0.103E-16
  1.769  0.213E-16  0.213E-16
  1.779  0.736E-16  0.736E-16
  1.789  0.151E-15  0.151E-15
  1.799  0.305E-15  0.305E-15
  1.809  0.612E-15  0.612E-15
  1.819  0.122E-14  0.122E-14
  1.829  0.239E-14  0.239E-14
  1.839  0.467E-14  0.467E-14
  1.849  0.907E-14  0.907E-14
  1.859  0.173E-13  0.173E-13
  1.869  0.326E-13  0.326E-13
  1.879  0.614E-13  0.614E-13
  1.889  0.114E-12  0.114E-12
  1.899  0.208E-12  0.208E-12
  1.909  0.377E-12  0.377E-12
  1.919  0.677E-12  0.677E-12
  1.929  0.120E-11  0.120E-11
  1.939  0.212E-11  0.212E-11
  1.949  0.369E-11  0.369E-11
  1.959  0.636E-11  0.636E-11
  1.969  0.109E-10  0.109E-10
  1.979  0.184E-10  0.184E-10
  1.989  0.308E-10  0.308E-10
  1.999  0.511E-10  0.511E-10
  2.009  0.840E-10  0.840E-10
  2.019  0.137E-09  0.137E-09
  2.029  0.221E-09  0.221E-09
  2.039  0.353E-09  0.353E-09
  2.049  0.559E-09  0.559E-09
  2.059  0.877E-09  0.877E-09
  2.069  0.137E-08  0.137E-08
  2.079  0.211E-08  0.211E-08
  2.089  0.322E-08  0.322E-08
  2.099  0.489E-08  0.489E-08
  2.109  0.735E-08  0.735E-08
  2.119  0.110E-07  0.110E-07
  2.129  0.162E-07  0.162E-07
  2.139  0.238E-07  0.238E-07
  2.149  0.348E-07  0.348E-07
  2.159  0.502E-07  0.502E-07
  2.169  0.721E-07  0.721E-07
  2.179  0.103E-06  0.103E-06
  2.189  0.145E-06  0.145E-06
  2.199  0.204E-06  0.204E-06
  2.209  0.284E-06  0.284E-06
  2.219  0.393E-06  0.393E-06
  2.229  0.540E-06  0.540E-06
  2.239  0.736E-06  0.736E-06
  2.249  0.996E-06  0.996E-06
  2.259  0.134E-05  0.134E-05
  2.269  0.179E-05  0.179E-05
  2.279  0.237E-05  0.237E-05
  2.289  0.311E-05  0.311E-05
  2.299  0.407E-05  0.407E-05
  2.309  0.527E-05  0.527E-05
  2.319  0.678E-05  0.678E-05
  2.329  0.866E-05  0.866E-05
  2.339  0.110E-04  0.110E-04
  2.349  0.138E-04  0.138E-04
  2.359  0.172E-04  0.172E-04
  2.369  0.213E-04  0.213E-04
  2.379  0.262E-04  0.262E-04
  2.389  0.320E-04  0.320E-04
  2.399  0.387E-04  0.387E-04
  2.409  0.465E-04  0.465E-04
  2.419  0.555E-04  0.555E-04
  2.429  0.657E-04  0.657E-04
  2.439  0.772E-04  0.772E-04
  2.449  0.901E-04  0.901E-04
  2.459  0.104E-03  0.104E-03
  2.469  0.120E-03  0.120E-03
  2.479  0.137E-03  0.137E-03
  2.489  0.156E-03  0.156E-03
  2.499  0.176E-03  0.176E-03
  2.509  0.198E-03  0.198E-03
  2.519  0.221E-03  0.221E-03
  2.529  0.246E-03  0.246E-03
  2.539  0.272E-03  0.272E-03
  2.549  0.300E-03  0.300E-03
  2.559  0.331E-03  0.331E-03
  2.569  0.363E-03  0.363E-03
  2.579  0.397E-03  0.397E-03
  2.589  0.435E-03  0.435E-03
  2.599  0.475E-03  0.475E-03
  2.609  0.519E-03  0.519E-03
  2.619  0.568E-03  0.568E-03
  2.629  0.622E-03  0.622E-03
  2.639  0.681E-03  0.681E-03
  2.649  0.747E-03  0.747E-03
  2.659  0.821E-03  0.821E-03
  2.669  0.903E-03  0.903E-03
  2.679  0.995E-03  0.995E-03
  2.689  0.110E-02  0.110E-02
  2.699  0.121E-02  0.121E-02
  2.709  0.134E-02  0.134E-02
  2.719  0.148E-02  0.148E-02
  2.729  0.163E-02  0.163E-02
  2.739  0.180E-02  0.180E-02
  2.749  0.198E-02  0.198E-02
  2.759  0.218E-02  0.218E-02
  2.769  0.240E-02  0.240E-02
  2.779  0.263E-02  0.263E-02
  2.789  0.288E-02  0.288E-02
  2.799  0.314E-02  0.314E-02
  2.809  0.342E-02  0.342E-02
  2.819  0.372E-02  0.372E-02
  2.829  0.403E-02  0.403E-02
  2.839  0.436E-02  0.436E-02
  2.849  0.470E-02  0.470E-02
  2.859  0.505E-02  0.505E-02
  2.869  0.541E-02  0.541E-02
  2.879  0.578E-02  0.578E-02
  2.889  0.616E-02  0.616E-02
  2.899  0.655E-02  0.655E-02
  2.909  0.694E-02  0.694E-02
  2.919  0.734E-02  0.734E-02
  2.929  0.773E-02  0.773E-02
  2.939  0.813E-02  0.813E-02
  2.949  0.852E-02  0.852E-02
  2.959  0.891E-02  0.891E-02
  2.969  0.930E-02  0.930E-02
  2.979  0.968E-02  0.968E-02
  2.989  0.100E-01  0.100E-01
  2.999  0.104E-01  0.104E-01
  3.009  0.108E-01  0.108E-01
  3.019  0.111E-01  0.111E-01
  3.029  0.115E-01  0.115E-01
  3.039  0.118E-01  0.118E-01
  3.049  0.122E-01  0.122E-01
  3.059  0.125E-01  0.125E-01
  3.069  0.128E-01  0.128E-01
  3.079  0.132E-01  0.132E-01
  3.089  0.135E-01  0.135E-01
  3.099  0.139E-01  0.139E-01
  3.109  0.142E-01  0.142E-01
  3.119  0.146E-01  0.146E-01
  3.129  0.150E-01  0.150E-01
  3.139  0.154E-01  0.154E-01
  3.149  0.158E-01  0.158E-01
  3.159  0.162E-01  0.162E-01
  3.169  0.166E-01  0.166E-01
  3.179  0.171E-01  0.171E-01
  3.189  0.176E-01  0.176E-01
  3.199  0.180E-01  0.180E-01
  3.209  0.186E-01  0.186E-01
  3.219  0.191E-01  0.191E-01
  3.229  0.196E-01  0.196E-01
  3.239  0.202E-01  0.202E-01
  3.249  0.208E-01  0.208E-01
  3.259  0.214E-01  0.214E-01
  3.269  0.220E-01  0.220E-01
  3.279  0.227E-01  0.227E-01
  3.289  0.233E-01  0.233E-01
  3.299  0.240E-01  0.240E-01
  3.309  0.247E-01  0.247E-01
  3.319  0.254E-01  0.254E-01
  3.329  0.261E-01  0.261E-01
  3.339  0.269E-01  0.269E-01
  3.349  0.276E-01  0.276E-01
  3.359  0.283E-01  0.283E-01
  3.369  0.290E-01  0.290E-01
  3.379  0.297E-01  0.297E-01
  3.389  0.304E-01  0.304E-01
  3.399  0.311E-01  0.311E-01
  3.409  0.318E-01  0.318E-01
  3.419  0.324E-01  0.324E-01
  3.429  0.331E-01  0.331E-01
  3.439  0.337E-01  0.337E-01
  3.449  0.343E-01  0.343E-01
  3.459  0.348E-01  0.348E-01
  3.469  0.354E-01  0.354E-01
  3.479  0.359E-01  0.359E-01
  3.489  0.365E-01  0.365E-01
  3.499  0.370E-01  0.370E-01
  3.509  0.374E-01  0.374E-01
  3.519  0.379E-01  0.379E-01
  3.529  0.383E-01  0.383E-01
  3.539  0.387E-01  0.387E-01
  3.549  0.391E-01  0.391E-01
  3.559  0.394E-01  0.394E-01
  3.569  0.397E-01  0.397E-01
  3.579  0.399E-01  0.399E-01
  3.589  0.401E-01  0.401E-01
  3.599  0.403E-01  0.403E-01
  3.609  0.405E-01  0.405E-01
  3.619  0.406E-01  0.406E-01
  3.629  0.407E-01  0.407E-01
  3.639  0.407E-01  0.407E-01
  3.649  0.407E-01  0.407E-01
  3.659  0.407E-01  0.407E-01
  3.669  0.407E-01  0.407E-01
  3.679  0.407E-01  0.407E-01
  3.689  0.407E-01  0.407E-01
  3.699  0.406E-01  0.406E-01
  3.709  0.406E-01  0.406E-01
  3.719  0.406E-01  0.406E-01
  3.729  0.405E-01  0.405E-01
  3.739  0.405E-01  0.405E-01
  3.749  0.405E-01  0.405E-01
  3.759  0.405E-01  0.405E-01
  3.769  0.405E-01  0.405E-01
  3.779  0.406E-01  0.406E-01
  3.789  0.407E-01  0.407E-01
  3.799  0.408E-01  0.408E-01
  3.809  0.409E-01  0.409E-01
  3.819  0.411E-01  0.411E-01
  3.829  0.414E-01  0.414E-01
  3.839  0.417E-01  0.417E-01
  3.849  0.422E-01  0.422E-01
  3.859  0.426E-01  0.426E-01
  3.869  0.432E-01  0.432E-01
  3.879  0.439E-01  0.439E-01
  3.889  0.446E-01  0.446E-01
  3.899  0.454E-01  0.454E-01
  3.909  0.463E-01  0.463E-01
  3.919  0.473E-01  0.473E-01
  3.929  0.483E-01  0.483E-01
  3.939  0.493E-01  0.493E-01
  3.949  0.503E-01  0.503E-01
  3.959  0.513E-01  0.513E-01
  3.969  0.523E-01  0.523E-01
  3.979  0.532E-01  0.532E-01
  3.989  0.540E-01  0.540E-01
  3.999  0.548E-01  0.548E-01
  4.009  0.554E-01  0.554E-01
  4.019  0.559E-01  0.559E-01
  4.029  0.562E-01  0.562E-01
  4.039  0.564E-01  0.564E-01
  4.049  0.564E-01  0.564E-01
  4.059  0.563E-01  0.563E-01
  4.069  0.561E-01  0.561E-01
  4.079  0.558E-01  0.558E-01
  4.089  0.553E-01  0.553E-01
  4.099  0.548E-01  0.548E-01
  4.109  0.543E-01  0.543E-01
  4.119  0.537E-01  0.537E-01
  4.129  0.531E-01  0.531E-01
  4.139  0.526E-01  0.526E-01
  4.149  0.520E-01  0.520E-01
  4.159  0.515E-01  0.515E-01
  4.169  0.511E-01  0.511E-01
  4.179  0.507E-01  0.507E-01
  4.189  0.503E-01  0.503E-01
  4.199  0.500E-01  0.500E-01
  4.209  0.497E-01  0.497E-01
  4.219  0.495E-01  0.495E-01
  4.229  0.493E-01  0.493E-01
  4.239  0.491E-01  0.491E-01
  4.249  0.489E-01  0.489E-01
  4.259  0.488E-01  0.488E-01
  4.269  0.486E-01  0.486E-01
  4.279  0.485E-01  0.485E-01
  4.289  0.484E-01  0.484E-01
  4.299  0.483E-01  0.483E-01
  4.309  0.482E-01  0.482E-01
  4.319  0.482E-01  0.482E-01
  4.329  0.482E-01  0.482E-01
  4.339  0.483E-01  0.483E-01
  4.349  0.484E-01  0.484E-01
  4.359  0.486E-01  0.486E-01
  4.369  0.489E-01  0.489E-01
  4.379  0.493E-01  0.493E-01
  4.389  0.497E-01  0.497E-01
  4.399  0.501E-01  0.501E-01
  4.409  0.507E-01  0.507E-01
  4.419  0.512E-01  0.512E-01
  4.429  0.518E-01  0.518E-01
  4.439  0.523E-01  0.523E-01
  4.449  0.529E-01  0.529E-01
  4.459  0.534E-01  0.534E-01
  4.469  0.538E-01  0.538E-01
  4.479  0.541E-01  0.541E-01
  4.489  0.543E-01  0.543E-01
  4.499  0.543E-01  0.543E-01
  4.509  0.543E-01  0.543E-01
  4.519  0.540E-01  0.540E-01
  4.529  0.537E-01  0.537E-01
  4.539  0.532E-01  0.532E-01
  4.549  0.525E-01  0.525E-01
  4.559  0.518E-01  0.518E-01
  4.569  0.509E-01  0.509E-01
  4.579  0.500E-01  0.500E-01
  4.589  0.490E-01  0.490E-01
  4.599  0.479E-01  0.479E-01
  4.609  0.468E-01  0.468E-01
  4.619  0.458E-01  0.458E-01
  4.629  0.447E-01  0.447E-01
  4.639  0.437E-01  0.437E-01
  4.649  0.427E-01  0.427E-01
  4.659  0.418E-01  0.418E-01
  4.669  0.409E-01  0.409E-01
  4.679  0.401E-01  0.401E-01
  4.689  0.393E-01  0.393E-01
  4.699  0.386E-01  0.386E-01
  4.709  0.379E-01  0.379E-01
  4.719  0.373E-01  0.373E-01
  4.729  0.367E-01  0.367E-01
  4.739  0.361E-01  0.361E-01
  4.749  0.356E-01  0.356E-01
  4.759  0.351E-01  0.351E-01
  4.769  0.346E-01  0.346E-01
  4.779  0.342E-01  0.342E-01
  4.789  0.338E-01  0.338E-01
  4.799  0.334E-01  0.334E-01
  4.809  0.330E-01  0.330E-01
  4.819  0.327E-01  0.327E-01
  4.829  0.324E-01  0.324E-01
  4.839  0.322E-01  0.322E-01
  4.849  0.320E-01  0.320E-01
  4.859  0.319E-01  0.319E-01
  4.869  0.318E-01  0.318E-01
  4.879  0.318E-01  0.318E-01
  4.889  0.318E-01  0.318E-01
  4.899  0.319E-01  0.319E-01
  4.909  0.321E-01  0.321E-01
  4.919  0.323E-01  0.323E-01
  4.929  0.325E-01  0.325E-01
  4.939  0.327E-01  0.327E-01
  4.949  0.330E-01  0.330E-01
  4.959  0.333E-01  0.333E-01
  4.969  0.336E-01  0.336E-01
  4.979  0.339E-01  0.339E-01
  4.989  0.343E-01  0.343E-01
  4.999  0.346E-01  0.346E-01
  5.009  0.349E-01  0.349E-01
  5.019  0.352E-01  0.352E-01
  5.029  0.355E-01  0.355E-01
  5.039  0.358E-01  0.358E-01
  5.049  0.361E-01  0.361E-01
  5.059  0.364E-01  0.364E-01
  5.069  0.366E-01  0.366E-01
  5.079  0.368E-01  0.368E-01
  5.089  0.370E-01  0.370E-01
  5.099  0.371E-01  0.371E-01
  5.109  0.372E-01  0.372E-01
  5.119  0.373E-01  0.373E-01
  5.129  0.373E-01  0.373E-01
  5.139  0.373E-01  0.373E-01
  5.149  0.372E-01  0.372E-01
  5.159  0.370E-01  0.370E-01
  5.169  0.368E-01  0.368E-01
  5.179  0.366E-01  0.366E-01
  5.189  0.363E-01  0.363E-01
  5.199  0.360E-01  0.360E-01
  5.209  0.357E-01  0.357E-01
  5.219  0.353E-01  0.353E-01
  5.229  0.350E-01  0.350E-01
  5.239  0.347E-01  0.347E-01
  5.249  0.344E-01  0.344E-01
  5.259  0.341E-01  0.341E-01
  5.269  0.339E-01  0.339E-01
  5.279  0.336E-01  0.336E-01
  5.289  0.334E-01  0.334E-01
  5.299  0.332E-01  0.332E-01
  5.309  0.331E-01  0.331E-01
  5.319  0.329E-01  0.329E-01
  5.329  0.327E-01  0.327E-01
  5.339  0.325E-01  0.325E-01
  5.349  0.323E-01  0.323E-01
  5.359  0.320E-01  0.320E-01
  5.369  0.318E-01  0.318E-01
  5.379  0.314E-01  0.314E-01
  5.389  0.310E-01  0.310E-01
  5.399  0.306E-01  0.306E-01
  5.409  0.302E-01  0.302E-01
  5.419  0.297E-01  0.297E-01
  5.429  0.292E-01  0.292E-01
  5.439  0.288E-01  0.288E-01
  5.449  0.283E-01  0.283E-01
  5.459  0.279E-01  0.279E-01
  5.469  0.275E-01  0.275E-01
  5.479  0.272E-01  0.272E-01
  5.489  0.269E-01  0.269E-01
  5.499  0.268E-01  0.268E-01
  5.509  0.267E-01  0.267E-01
  5.519  0.267E-01  0.267E-01
  5.529  0.269E-01  0.269E-01
  5.539  0.272E-01  0.272E-01
  5.549  0.275E-01  0.275E-01
  5.559  0.280E-01  0.280E-01
  5.569  0.285E-01  0.285E-01
  5.579  0.291E-01  0.291E-01
  5.589  0.298E-01  0.298E-01
  5.599  0.305E-01  0.305E-01
  5.609  0.312E-01  0.312E-01
  5.619  0.319E-01  0.319E-01
  5.629  0.326E-01  0.326E-01
  5.639  0.334E-01  0.334E-01
  5.649  0.340E-01  0.340E-01
  5.659  0.346E-01  0.346E-01
  5.669  0.352E-01  0.352E-01
  5.679  0.356E-01  0.356E-01
  5.689  0.360E-01  0.360E-01
  5.699  0.363E-01  0.363E-01
  5.709  0.364E-01  0.364E-01
  5.719  0.365E-01  0.365E-01
  5.729  0.364E-01  0.364E-01
  5.739  0.363E-01  0.363E-01
  5.749  0.360E-01  0.360E-01
  5.759  0.356E-01  0.356E-01
  5.769  0.351E-01  0.351E-01
  5.779  0.345E-01  0.345E-01
  5.789  0.338E-01  0.338E-01
  5.799  0.331E-01  0.331E-01
  5.809  0.323E-01  0.323E-01
  5.819  0.315E-01  0.315E-01
  5.829  0.306E-01  0.306E-01
  5.839  0.298E-01  0.298E-01
  5.849  0.289E-01  0.289E-01
  5.859  0.280E-01  0.280E-01
  5.869  0.272E-01  0.272E-01
  5.879  0.265E-01  0.265E-01
  5.889  0.257E-01  0.257E-01
  5.899  0.251E-01  0.251E-01
  5.909  0.245E-01  0.245E-01
  5.919  0.240E-01  0.240E-01
  5.929  0.236E-01  0.236E-01
  5.939  0.233E-01  0.233E-01
  5.949  0.231E-01  0.231E-01
  5.959  0.230E-01  0.230E-01
  5.969  0.229E-01  0.229E-01
  5.979  0.230E-01  0.230E-01
  5.989  0.231E-01  0.231E-01
  5.999  0.233E-01  0.233E-01
  6.009  0.236E-01  0.236E-01
  6.019  0.239E-01  0.239E-01
  6.029  0.243E-01  0.243E-01
  6.039  0.247E-01  0.247E-01
  6.049  0.251E-01  0.251E-01
  6.059  0.256E-01  0.256E-01
  6.069  0.260E-01  0.260E-01
  6.079  0.264E-01  0.264E-01
  6.089  0.269E-01  0.269E-01
  6.099  0.272E-01  0.272E-01
  6.109  0.276E-01  0.276E-01
  6.119  0.279E-01  0.279E-01
  6.129  0.281E-01  0.281E-01
  6.139  0.283E-01  0.283E-01
  6.149  0.285E-01  0.285E-01
  6.159  0.285E-01  0.285E-01
  6.169  0.286E-01  0.286E-01
  6.179  0.285E-01  0.285E-01
  6.189  0.284E-01  0.284E-01
  6.199  0.283E-01  0.283E-01
  6.209  0.281E-01  0.281E-01
  6.219  0.279E-01  0.279E-01
  6.229  0.277E-01  0.277E-01
  6.239  0.274E-01  0.274E-01
  6.249  0.270E-01  0.270E-01
  6.259  0.267E-01  0.267E-01
  6.269  0.263E-01  0.263E-01
  6.279  0.260E-01  0.260E-01
  6.289  0.256E-01  0.256E-01
  6.299  0.252E-01  0.252E-01
  6.309  0.248E-01  0.248E-01
  6.319  0.245E-01  0.245E-01
  6.329  0.241E-01  0.241E-01
  6.339  0.238E-01  0.238E-01
  6.349  0.235E-01  0.235E-01
  6.359  0.232E-01  0.232E-01
  6.369  0.229E-01  0.229E-01
  6.379  0.227E-01  0.227E-01
  6.389  0.226E-01  0.226E-01
  6.399  0.224E-01  0.224E-01
  6.409  0.223E-01  0.223E-01
  6.419  0.222E-01  0.222E-01
  6.429  0.222E-01  0.222E-01
  6.439  0.221E-01  0.221E-01
  6.449  0.221E-01  0.221E-01
  6.459  0.222E-01  0.222E-01
  6.469  0.222E-01  0.222E-01
  6.479  0.222E-01  0.222E-01
  6.489  0.223E-01  0.223E-01
  6.499  0.223E-01  0.223E-01
  6.509  0.223E-01  0.223E-01
  6.519  0.223E-01  0.223E-01
  6.529  0.224E-01  0.224E-01
  6.539  0.224E-01  0.224E-01
  6.549  0.224E-01  0.224E-01
  6.559  0.224E-01  0.224E-01
  6.569  0.223E-01  0.223E-01
  6.579  0.223E-01  0.223E-01
  6.589  0.223E-01  0.223E-01
  6.599  0.223E-01  0.223E-01
  6.609  0.222E-01  0.222E-01
  6.619  0.222E-01  0.222E-01
  6.629  0.222E-01  0.222E-01
  6.639  0.223E-01  0.223E-01
  6.649  0.223E-01  0.223E-01
  6.659  0.223E-01  0.223E-01
  6.669  0.224E-01  0.224E-01
  6.679  0.224E-01  0.224E-01
  6.689  0.225E-01  0.225E-01
  6.699  0.226E-01  0.226E-01
  6.709  0.227E-01  0.227E-01
  6.719  0.227E-01  0.227E-01
  6.729  0.227E-01  0.227E-01
  6.739  0.227E-01  0.227E-01
  6.749  0.227E-01  0.227E-01
  6.759  0.227E-01  0.227E-01
  6.769  0.226E-01  0.226E-01
  6.779  0.224E-01  0.224E-01
  6.789  0.222E-01  0.222E-01
  6.799  0.220E-01  0.220E-01
  6.809  0.217E-01  0.217E-01
  6.819  0.214E-01  0.214E-01
  6.829  0.210E-01  0.210E-01
  6.839  0.206E-01  0.206E-01
  6.849  0.202E-01  0.202E-01
  6.859  0.198E-01  0.198E-01
  6.869  0.193E-01  0.193E-01
  6.879  0.189E-01  0.189E-01
  6.889  0.185E-01  0.185E-01
  6.899  0.181E-01  0.181E-01
  6.909  0.177E-01  0.177E-01
  6.919  0.174E-01  0.174E-01
  6.929  0.171E-01  0.171E-01
  6.939  0.169E-01  0.169E-01
  6.949  0.167E-01  0.167E-01
  6.959  0.166E-01  0.166E-01
  6.969  0.165E-01  0.165E-01
  6.979  0.165E-01  0.165E-01
  6.989  0.165E-01  0.165E-01
  6.999  0.165E-01  0.165E-01
  7.009  0.166E-01  0.166E-01
  7.019  0.168E-01  0.168E-01
  7.029  0.169E-01  0.169E-01
  7.039  0.171E-01  0.171E-01
  7.049  0.173E-01  0.173E-01
  7.059  0.175E-01  0.175E-01
  7.069  0.177E-01  0.177E-01
  7.079  0.179E-01  0.179E-01
  7.089  0.180E-01  0.180E-01
  7.099  0.182E-01  0.182E-01
  7.109  0.184E-01  0.184E-01
  7.119  0.186E-01  0.186E-01
  7.129  0.187E-01  0.187E-01
  7.139  0.189E-01  0.189E-01
  7.149  0.190E-01  0.190E-01
  7.159  0.191E-01  0.191E-01
  7.169  0.193E-01  0.193E-01
  7.179  0.194E-01  0.194E-01
  7.189  0.195E-01  0.195E-01
  7.199  0.197E-01  0.197E-01
  7.209  0.198E-01  0.198E-01
  7.219  0.199E-01  0.199E-01
  7.229  0.200E-01  0.200E-01
  7.239  0.201E-01  0.201E-01
  7.249  0.202E-01  0.202E-01
  7.259  0.203E-01  0.203E-01
  7.269  0.203E-01  0.203E-01
  7.279  0.203E-01  0.203E-01
  7.289  0.203E-01  0.203E-01
  7.299  0.202E-01  0.202E-01
  7.309  0.201E-01  0.201E-01
  7.319  0.199E-01  0.199E-01
  7.329  0.197E-01  0.197E-01
  7.339  0.195E-01  0.195E-01
  7.349  0.192E-01  0.192E-01
  7.359  0.188E-01  0.188E-01
  7.369  0.184E-01  0.184E-01
  7.379  0.179E-01  0.179E-01
  7.389  0.174E-01  0.174E-01
  7.399  0.169E-01  0.169E-01
  7.409  0.164E-01  0.164E-01
  7.419  0.159E-01  0.159E-01
  7.429  0.154E-01  0.154E-01
  7.439  0.149E-01  0.149E-01
  7.449  0.144E-01  0.144E-01
  7.459  0.140E-01  0.140E-01
  7.469  0.136E-01  0.136E-01
  7.479  0.133E-01  0.133E-01
  7.489  0.130E-01  0.130E-01
  7.499  0.128E-01  0.128E-01
  7.509  0.126E-01  0.126E-01
  7.519  0.125E-01  0.125E-01
  7.529  0.125E-01  0.125E-01
  7.539  0.125E-01  0.125E-01
  7.549  0.125E-01  0.125E-01
  7.559  0.126E-01  0.126E-01
  7.569  0.127E-01  0.127E-01
  7.579  0.128E-01  0.128E-01
  7.589  0.130E-01  0.130E-01
  7.599  0.131E-01  0.131E-01
  7.609  0.133E-01  0.133E-01
  7.619  0.135E-01  0.135E-01
  7.629  0.136E-01  0.136E-01
  7.639  0.138E-01  0.138E-01
  7.649  0.139E-01  0.139E-01
  7.659  0.140E-01  0.140E-01
  7.669  0.141E-01  0.141E-01
  7.679  0.142E-01  0.142E-01
  7.689  0.142E-01  0.142E-01
  7.699  0.143E-01  0.143E-01
  7.709  0.143E-01  0.143E-01
  7.719  0.143E-01  0.143E-01
  7.729  0.143E-01  0.143E-01
  7.739  0.143E-01  0.143E-01
  7.749  0.143E-01  0.143E-01
  7.759  0.143E-01  0.143E-01
  7.769  0.143E-01  0.143E-01
  7.779  0.142E-01  0.142E-01
  7.789  0.141E-01  0.141E-01
  7.799  0.141E-01  0.141E-01
  7.809  0.140E-01  0.140E-01
  7.819  0.138E-01  0.138E-01
  7.829  0.137E-01  0.137E-01
  7.839  0.135E-01  0.135E-01
  7.849  0.133E-01  0.133E-01
  7.859  0.131E-01  0.131E-01
  7.869  0.128E-01  0.128E-01
  7.879  0.125E-01  0.125E-01
  7.889  0.122E-01  0.122E-01
  7.899  0.119E-01  0.119E-01
  7.909  0.115E-01  0.115E-01
  7.919  0.111E-01  0.111E-01
  7.929  0.108E-01  0.108E-01
  7.939  0.104E-01  0.104E-01
  7.949  0.101E-01  0.101E-01
  7.959  0.970E-02  0.970E-02
  7.969  0.937E-02  0.937E-02
  7.979  0.906E-02  0.906E-02
  7.989  0.878E-02  0.878E-02
  7.999  0.853E-02  0.853E-02
  8.009  0.830E-02  0.830E-02
  8.019  0.811E-02  0.811E-02
  8.029  0.794E-02  0.794E-02
  8.039  0.780E-02  0.780E-02
  8.049  0.769E-02  0.769E-02
  8.059  0.760E-02  0.760E-02
  8.069  0.753E-02  0.753E-02
  8.079  0.747E-02  0.747E-02
  8.089  0.743E-02  0.743E-02
  8.099  0.739E-02  0.739E-02
  8.109  0.736E-02  0.736E-02
  8.119  0.732E-02  0.732E-02
  8.129  0.728E-02  0.728E-02
  8.139  0.723E-02  0.723E-02
  8.149  0.717E-02  0.717E-02
  8.159  0.711E-02  0.711E-02
  8.169  0.703E-02  0.703E-02
  8.179  0.694E-02  0.694E-02
  8.189  0.683E-02  0.683E-02
  8.199  0.672E-02  0.672E-02
  8.209  0.660E-02  0.660E-02
  8.219  0.646E-02  0.646E-02
  8.229  0.633E-02  0.633E-02
  8.239  0.618E-02  0.618E-02
  8.249  0.604E-02  0.604E-02
  8.259  0.590E-02  0.590E-02
  8.269  0.576E-02  0.576E-02
  8.279  0.562E-02  0.562E-02
  8.289  0.550E-02  0.550E-02
  8.299  0.538E-02  0.538E-02
  8.309  0.527E-02  0.527E-02
  8.319  0.517E-02  0.517E-02
  8.329  0.509E-02  0.509E-02
  8.339  0.501E-02  0.501E-02
  8.349  0.495E-02  0.495E-02
  8.359  0.489E-02  0.489E-02
  8.369  0.485E-02  0.485E-02
  8.379  0.481E-02  0.481E-02
  8.389  0.478E-02  0.478E-02
  8.399  0.475E-02  0.475E-02
  8.409  0.472E-02  0.472E-02
  8.419  0.469E-02  0.469E-02
  8.429  0.465E-02  0.465E-02
  8.439  0.462E-02  0.462E-02
  8.449  0.458E-02  0.458E-02
  8.459  0.453E-02  0.453E-02
  8.469  0.447E-02  0.447E-02
  8.479  0.441E-02  0.441E-02
  8.489  0.434E-02  0.434E-02
  8.499  0.426E-02  0.426E-02
  8.509  0.417E-02  0.417E-02
  8.519  0.408E-02  0.408E-02
  8.529  0.398E-02  0.398E-02
  8.539  0.388E-02  0.388E-02
  8.549  0.377E-02  0.377E-02
  8.559  0.365E-02  0.365E-02
  8.569  0.353E-02  0.353E-02
  8.579  0.341E-02  0.341E-02
  8.589  0.329E-02  0.329E-02
  8.599  0.316E-02  0.316E-02
  8.609  0.304E-02  0.304E-02
  8.619  0.291E-02  0.291E-02
  8.629  0.278E-02  0.278E-02
  8.639  0.266E-02  0.266E-02
  8.649  0.254E-02  0.254E-02
  8.659  0.242E-02  0.242E-02
  8.669  0.231E-02  0.231E-02
  8.679  0.220E-02  0.220E-02
  8.689  0.210E-02  0.210E-02
  8.699  0.201E-02  0.201E-02
  8.709  0.192E-02  0.192E-02
  8.719  0.184E-02  0.184E-02
  8.729  0.177E-02  0.177E-02
  8.739  0.170E-02  0.170E-02
  8.749  0.164E-02  0.164E-02
  8.759  0.159E-02  0.159E-02
  8.769  0.155E-02  0.155E-02
  8.779  0.151E-02  0.151E-02
  8.789  0.148E-02  0.148E-02
  8.799  0.145E-02  0.145E-02
  8.809  0.143E-02  0.143E-02
  8.819  0.141E-02  0.141E-02
  8.829  0.140E-02  0.140E-02
  8.839  0.138E-02  0.138E-02
  8.849  0.137E-02  0.137E-02
  8.859  0.135E-02  0.135E-02
  8.869  0.133E-02  0.133E-02
  8.879  0.131E-02  0.131E-02
  8.889  0.129E-02  0.129E-02
  8.899  0.127E-02  0.127E-02
  8.909  0.124E-02  0.124E-02
  8.919  0.121E-02  0.121E-02
  8.929  0.117E-02  0.117E-02
  8.939  0.114E-02  0.114E-02
  8.949  0.110E-02  0.110E-02
  8.959  0.106E-02  0.106E-02
  8.969  0.102E-02  0.102E-02
  8.979  0.983E-03  0.983E-03
  8.989  0.943E-03  0.943E-03
  8.999  0.903E-03  0.903E-03
  9.009  0.863E-03  0.863E-03
  9.019  0.825E-03  0.825E-03
  9.029  0.787E-03  0.787E-03
  9.039  0.749E-03  0.749E-03
  9.049  0.712E-03  0.712E-03
  9.059  0.676E-03  0.676E-03
  9.069  0.640E-03  0.640E-03
  9.079  0.605E-03  0.605E-03
  9.089  0.569E-03  0.569E-03
  9.099  0.534E-03  0.534E-03
  9.109  0.499E-03  0.499E-03
  9.119  0.464E-03  0.464E-03
  9.129  0.429E-03  0.429E-03
  9.139  0.395E-03  0.395E-03
  9.149  0.362E-03  0.362E-03
  9.159  0.330E-03  0.330E-03
  9.169  0.299E-03  0.299E-03
  9.179  0.269E-03  0.269E-03
  9.189  0.241E-03  0.241E-03
  9.199  0.214E-03  0.214E-03
  9.209  0.189E-03  0.189E-03
  9.219  0.166E-03  0.166E-03
  9.229  0.145E-03  0.145E-03
  9.239  0.126E-03  0.126E-03
  9.249  0.109E-03  0.109E-03
  9.259  0.939E-04  0.939E-04
  9.269  0.803E-04  0.803E-04
  9.279  0.683E-04  0.683E-04
  9.289  0.578E-04  0.578E-04
  9.299  0.487E-04  0.487E-04
  9.309  0.409E-04  0.409E-04
  9.319  0.341E-04  0.341E-04
  9.329  0.283E-04  0.283E-04
  9.339  0.234E-04  0.234E-04
  9.349  0.193E-04  0.193E-04
  9.359  0.158E-04  0.158E-04
  9.369  0.129E-04  0.129E-04
  9.379  0.104E-04  0.104E-04
  9.389  0.840E-05  0.840E-05
  9.399  0.673E-05  0.673E-05
  9.409  0.536E-05  0.536E-05
  9.419  0.424E-05  0.424E-05
  9.429  0.334E-05  0.334E-05
  9.439  0.261E-05  0.261E-05
  9.449  0.202E-05  0.202E-05
  9.459  0.156E-05  0.156E-05
  9.469  0.119E-05  0.119E-05
  9.479  0.901E-06  0.901E-06
  9.489  0.678E-06  0.678E-06
  9.499  0.506E-06  0.506E-06
  9.509  0.374E-06  0.374E-06
  9.519  0.274E-06  0.274E-06
  9.529  0.199E-06  0.199E-06
  9.539  0.144E-06  0.144E-06
  9.549  0.103E-06  0.103E-06
  9.559  0.726E-07  0.726E-07
  9.569  0.509E-07  0.509E-07
  9.579  0.354E-07  0.354E-07
  9.589  0.244E-07  0.244E-07
  9.599  0.166E-07  0.166E-07
  9.609  0.112E-07  0.112E-07
  9.619  0.750E-08  0.750E-08
  9.629  0.496E-08  0.496E-08
  9.639  0.326E-08  0.326E-08
  9.649  0.211E-08  0.211E-08
  9.659  0.136E-08  0.136E-08
  9.669  0.866E-09  0.866E-09
  9.679  0.546E-09  0.546E-09
  9.689  0.341E-09  0.341E-09
  9.699  0.211E-09  0.211E-09
  9.709  0.129E-09  0.129E-09
  9.719  0.781E-10  0.781E-10
  9.729  0.468E-10  0.468E-10
  9.739  0.278E-10  0.278E-10
  9.749  0.163E-10  0.163E-10
  9.759  0.951E-11  0.951E-11
  9.769  0.548E-11  0.548E-11
  9.779  0.312E-11  0.312E-11
  9.789  0.176E-11  0.176E-11
  9.799  0.985E-12  0.985E-12
  9.809  0.545E-12  0.545E-12
  9.819  0.298E-12  0.298E-12
  9.829  0.162E-12  0.162E-12
  9.839  0.867E-13  0.867E-13
  9.849  0.460E-13  0.460E-13
  9.859  0.242E-13  0.242E-13
  9.869  0.126E-13  0.126E-13
  9.879  0.648E-14  0.648E-14
  9.889  0.326E-14  0.326E-14
  9.899  0.165E-14  0.165E-14
  9.909  0.823E-15  0.823E-15
  9.919  0.406E-15  0.406E-15
  9.929  0.199E-15  0.199E-15
  9.939  0.677E-16  0.677E-16
  9.949  0.328E-16  0.328E-16
  9.959  0.105E-16  0.105E-16
  9.969  0.502E-17  0.502E-17
  9.979  0.239E-17  0.239E-17
  9.989  0.499E-22  0.499E-22
  9.999  0.147E-23  0.147E-23
 10.009  0.430E-24  0.430E-24
 10.019  0.000E+00  0.000E+00
 10.029  0.000E+00  0.000E+00
 10.039  0.000E+00  0.000E+00
 10.049  0.000E+00  0.000E+00
 10.059  0.000E+00  0.000E+00
 10.069  0.000E+00  0.000E+00
 10.079  0.000E+00  0.000E+00
 10.089  0.000E+00  0.000E+00
 10.099  0.000E+00  0.000E+00
 10.109  0.000E+00  0.000E+00
 10.119  0.000E+00  0.000E+00
 10.129  0.000E+00  0.000E+00
 10.139  0.000E+00  0.000E+00
 10.149  0.000E+00  0.000E+00
 10.159  0.000E+00  0.000E+00
 10.169  0.000E+00  0.000E+00
 10.179  0.000E+00  0.000E+00
 10.189  0.000E+00  0.000E+00
 10.199  0.000E+00  0.000E+00
 10.209  0.000E+00  0.000E+00
 10.219  0.000E+00  0.000E+00
 10.229  0.000E+00  0.000E+00
 10.239  0.000E+00  0.000E+00
 10.249  0.000E+00  0.000E+00
 10.259  0.000E+00  0.000E+00
 10.269  0.000E+00  0.000E+00
 10.279  0.000E+00  0.000E+00
 10.289  0.000E+00  0.000E+00
 10.299  0.000E+00  0.000E+00
 10.309  0.000E+00  0.000E+00
 10.319  0.000E+00  0.000E+00
 10.329  0.000E+00  0.000E+00
 10.339  0.000E+00  0.000E+00
 10.349  0.000E+00  0.000E+00
 10.359  0.000E+00  0.000E+00
 10.369  0.224E-14  0.224E-14
 10.379  0.469E-14  0.469E-14
 10.389  0.972E-14  0.972E-14
 10.399  0.199E-13  0.199E-13
 10.409  0.404E-13  0.404E-13
 10.419  0.811E-13  0.811E-13
 10.429  0.161E-12  0.161E-12
 10.439  0.316E-12  0.316E-12
 10.449  0.614E-12  0.614E-12
 10.459  0.118E-11  0.118E-11
 10.469  0.224E-11  0.224E-11
 10.479  0.422E-11  0.422E-11
 10.489  0.784E-11  0.784E-11
 10.499  0.144E-10  0.144E-10
 10.509  0.263E-10  0.263E-10
 10.519  0.473E-10  0.473E-10
 10.529  0.843E-10  0.843E-10
 10.539  0.148E-09  0.148E-09
 10.549  0.259E-09  0.259E-09
 10.559  0.446E-09  0.446E-09
 10.569  0.762E-09  0.762E-09
 10.579  0.129E-08  0.129E-08
 10.589  0.215E-08  0.215E-08
 10.599  0.355E-08  0.355E-08
 10.609  0.579E-08  0.579E-08
 10.619  0.936E-08  0.936E-08
 10.629  0.150E-07  0.150E-07
 10.639  0.237E-07  0.237E-07
 10.649  0.371E-07  0.371E-07
 10.659  0.574E-07  0.574E-07
 10.669  0.879E-07  0.879E-07
 10.679  0.133E-06  0.133E-06
 10.689  0.199E-06  0.199E-06
 10.699  0.296E-06  0.296E-06
 10.709  0.434E-06  0.434E-06
 10.719  0.629E-06  0.629E-06
 10.729  0.903E-06  0.903E-06
 10.739  0.128E-05  0.128E-05
 10.749  0.180E-05  0.180E-05
 10.759  0.250E-05  0.250E-05
 10.769  0.344E-05  0.344E-05
 10.779  0.468E-05  0.468E-05
 10.789  0.630E-05  0.630E-05
 10.799  0.838E-05  0.838E-05
 10.809  0.110E-04  0.110E-04
 10.819  0.144E-04  0.144E-04
 10.829  0.185E-04  0.185E-04
 10.839  0.236E-04  0.236E-04
 10.849  0.298E-04  0.298E-04
 10.859  0.372E-04  0.372E-04
 10.869  0.460E-04  0.460E-04
 10.879  0.562E-04  0.562E-04
 10.889  0.680E-04  0.680E-04
 10.899  0.814E-04  0.814E-04
 10.909  0.965E-04  0.965E-04
 10.919  0.113E-03  0.113E-03
 10.929  0.131E-03  0.131E-03
 10.939  0.151E-03  0.151E-03
 10.949  0.172E-03  0.172E-03
 10.959  0.195E-03  0.195E-03
 10.969  0.218E-03  0.218E-03
 10.979  0.243E-03  0.243E-03
 10.989  0.268E-03  0.268E-03
 10.999  0.294E-03  0.294E-03
 11.009  0.320E-03  0.320E-03
 11.019  0.348E-03  0.348E-03
 11.029  0.376E-03  0.376E-03
 11.039  0.406E-03  0.406E-03
 11.049  0.438E-03  0.438E-03
 11.059  0.473E-03  0.473E-03
 11.069  0.511E-03  0.511E-03
 11.079  0.555E-03  0.555E-03
 11.089  0.604E-03  0.604E-03
 11.099  0.660E-03  0.660E-03
 11.109  0.723E-03  0.723E-03
 11.119  0.796E-03  0.796E-03
 11.129  0.878E-03  0.878E-03
 11.139  0.971E-03  0.971E-03
 11.149  0.107E-02  0.107E-02
 11.159  0.119E-02  0.119E-02
 11.169  0.131E-02  0.131E-02
 11.179  0.144E-02  0.144E-02
 11.189  0.158E-02  0.158E-02
 11.199  0.172E-02  0.172E-02
 11.209  0.187E-02  0.187E-02
 11.219  0.202E-02  0.202E-02
 11.229  0.217E-02  0.217E-02
 11.239  0.232E-02  0.232E-02
 11.249  0.246E-02  0.246E-02
 11.259  0.260E-02  0.260E-02
 11.269  0.274E-02  0.274E-02
 11.279  0.286E-02  0.286E-02
 11.289  0.298E-02  0.298E-02
 11.299  0.310E-02  0.310E-02
 11.309  0.320E-02  0.320E-02
 11.319  0.331E-02  0.331E-02
 11.329  0.340E-02  0.340E-02
 11.339  0.349E-02  0.349E-02
 11.349  0.358E-02  0.358E-02
 11.359  0.366E-02  0.366E-02
 11.369  0.374E-02  0.374E-02
 11.379  0.381E-02  0.381E-02
 11.389  0.387E-02  0.387E-02
 11.399  0.393E-02  0.393E-02
 11.409  0.397E-02  0.397E-02
 11.419  0.400E-02  0.400E-02
 11.429  0.402E-02  0.402E-02
 11.439  0.403E-02  0.403E-02
 11.449  0.402E-02  0.402E-02
 11.459  0.400E-02  0.400E-02
 11.469  0.396E-02  0.396E-02
 11.479  0.391E-02  0.391E-02
 11.489  0.386E-02  0.386E-02
 11.499  0.379E-02  0.379E-02
 11.509  0.373E-02  0.373E-02
 11.519  0.367E-02  0.367E-02
 11.529  0.362E-02  0.362E-02
 11.539  0.357E-02  0.357E-02
 11.549  0.355E-02  0.355E-02
 11.559  0.355E-02  0.355E-02
 11.569  0.357E-02  0.357E-02
 11.579  0.362E-02  0.362E-02
 11.589  0.371E-02  0.371E-02
 11.599  0.383E-02  0.383E-02
 11.609  0.398E-02  0.398E-02
 11.619  0.416E-02  0.416E-02
 11.629  0.439E-02  0.439E-02
 11.639  0.464E-02  0.464E-02
 11.649  0.493E-02  0.493E-02
 11.659  0.524E-02  0.524E-02
 11.669  0.558E-02  0.558E-02
 11.679  0.594E-02  0.594E-02
 11.689  0.631E-02  0.631E-02
 11.699  0.669E-02  0.669E-02
 11.709  0.708E-02  0.708E-02
 11.719  0.747E-02  0.747E-02
 11.729  0.784E-02  0.784E-02
 11.739  0.820E-02  0.820E-02
 11.749  0.854E-02  0.854E-02
 11.759  0.884E-02  0.884E-02
 11.769  0.911E-02  0.911E-02
 11.779  0.933E-02  0.933E-02
 11.789  0.950E-02  0.950E-02
 11.799  0.962E-02  0.962E-02
 11.809  0.968E-02  0.968E-02
 11.819  0.969E-02  0.969E-02
 11.829  0.964E-02  0.964E-02
 11.839  0.953E-02  0.953E-02
 11.849  0.938E-02  0.938E-02
 11.859  0.917E-02  0.917E-02
 11.869  0.893E-02  0.893E-02
 11.879  0.865E-02  0.865E-02
 11.889  0.835E-02  0.835E-02
 11.899  0.804E-02  0.804E-02
 11.909  0.772E-02  0.772E-02
 11.919  0.741E-02  0.741E-02
 11.929  0.712E-02  0.712E-02
 11.939  0.687E-02  0.687E-02
 11.949  0.664E-02  0.664E-02
 11.959  0.647E-02  0.647E-02
 11.969  0.636E-02  0.636E-02
 11.979  0.630E-02  0.630E-02
 11.989  0.632E-02  0.632E-02
 11.999  0.641E-02  0.641E-02
 12.009  0.657E-02  0.657E-02
 12.019  0.680E-02  0.680E-02
 12.029  0.710E-02  0.710E-02
 12.039  0.747E-02  0.747E-02
 12.049  0.790E-02  0.790E-02
 12.059  0.838E-02  0.838E-02
 12.069  0.892E-02  0.892E-02
 12.079  0.948E-02  0.948E-02
 12.089  0.101E-01  0.101E-01
 12.099  0.107E-01  0.107E-01
 12.109  0.113E-01  0.113E-01
 12.119  0.119E-01  0.119E-01
 12.129  0.125E-01  0.125E-01
 12.139  0.131E-01  0.131E-01
 12.149  0.136E-01  0.136E-01
 12.159  0.141E-01  0.141E-01
 12.169  0.145E-01  0.145E-01
 12.179  0.148E-01  0.148E-01
 12.189  0.151E-01  0.151E-01
 12.199  0.153E-01  0.153E-01
 12.209  0.155E-01  0.155E-01
 12.219  0.155E-01  0.155E-01
 12.229  0.155E-01  0.155E-01
 12.239  0.155E-01  0.155E-01
 12.249  0.154E-01  0.154E-01
 12.259  0.152E-01  0.152E-01
 12.269  0.150E-01  0.150E-01
 12.279  0.147E-01  0.147E-01
 12.289  0.145E-01  0.145E-01
 12.299  0.142E-01  0.142E-01
 12.309  0.140E-01  0.140E-01
 12.319  0.138E-01  0.138E-01
 12.329  0.136E-01  0.136E-01
 12.339  0.135E-01  0.135E-01
 12.349  0.134E-01  0.134E-01
 12.359  0.133E-01  0.133E-01
 12.369  0.133E-01  0.133E-01
 12.379  0.134E-01  0.134E-01
 12.389  0.135E-01  0.135E-01
 12.399  0.136E-01  0.136E-01
 12.409  0.138E-01  0.138E-01
 12.419  0.141E-01  0.141E-01
 12.429  0.143E-01  0.143E-01
 12.439  0.146E-01  0.146E-01
 12.449  0.148E-01  0.148E-01
 12.459  0.151E-01  0.151E-01
 12.469  0.154E-01  0.154E-01
 12.479  0.157E-01  0.157E-01
 12.489  0.159E-01  0.159E-01
 12.499  0.162E-01  0.162E-01
 12.509  0.165E-01  0.165E-01
 12.519  0.168E-01  0.168E-01
 12.529  0.171E-01  0.171E-01
 12.539  0.174E-01  0.174E-01
 12.549  0.177E-01  0.177E-01
 12.559  0.180E-01  0.180E-01
 12.569  0.184E-01  0.184E-01
 12.579  0.187E-01  0.187E-01
 12.589  0.191E-01  0.191E-01
 12.599  0.195E-01  0.195E-01
 12.609  0.199E-01  0.199E-01
 12.619  0.203E-01  0.203E-01
 12.629  0.207E-01  0.207E-01
 12.639  0.210E-01  0.210E-01
 12.649  0.214E-01  0.214E-01
 12.659  0.218E-01  0.218E-01
 12.669  0.221E-01  0.221E-01
 12.679  0.224E-01  0.224E-01
 12.689  0.227E-01  0.227E-01
 12.699  0.230E-01  0.230E-01
 12.709  0.233E-01  0.233E-01
 12.719  0.235E-01  0.235E-01
 12.729  0.238E-01  0.238E-01
 12.739  0.240E-01  0.240E-01
 12.749  0.243E-01  0.243E-01
 12.759  0.245E-01  0.245E-01
 12.769  0.247E-01  0.247E-01
 12.779  0.250E-01  0.250E-01
 12.789  0.252E-01  0.252E-01
 12.799  0.255E-01  0.255E-01
 12.809  0.257E-01  0.257E-01
 12.819  0.259E-01  0.259E-01
 12.829  0.261E-01  0.261E-01
 12.839  0.263E-01  0.263E-01
 12.849  0.264E-01  0.264E-01
 12.859  0.265E-01  0.265E-01
 12.869  0.265E-01  0.265E-01
 12.879  0.265E-01  0.265E-01
 12.889  0.264E-01  0.264E-01
 12.899  0.263E-01  0.263E-01
 12.909  0.261E-01  0.261E-01
 12.919  0.259E-01  0.259E-01
 12.929  0.257E-01  0.257E-01
 12.939  0.254E-01  0.254E-01
 12.949  0.252E-01  0.252E-01
 12.959  0.250E-01  0.250E-01
 12.969  0.249E-01  0.249E-01
 12.979  0.248E-01  0.248E-01
 12.989  0.249E-01  0.249E-01
 12.999  0.251E-01  0.251E-01
 13.009  0.254E-01  0.254E-01
 13.019  0.258E-01  0.258E-01
 13.029  0.264E-01  0.264E-01
 13.039  0.271E-01  0.271E-01
 13.049  0.280E-01  0.280E-01
 13.059  0.290E-01  0.290E-01
 13.069  0.301E-01  0.301E-01
 13.079  0.314E-01  0.314E-01
 13.089  0.327E-01  0.327E-01
 13.099  0.340E-01  0.340E-01
 13.109  0.354E-01  0.354E-01
 13.119  0.367E-01  0.367E-01
 13.129  0.381E-01  0.381E-01
 13.139  0.393E-01  0.393E-01
 13.149  0.405E-01  0.405E-01
 13.159  0.416E-01  0.416E-01
 13.169  0.426E-01  0.426E-01
 13.179  0.435E-01  0.435E-01
 13.189  0.442E-01  0.442E-01
 13.199  0.449E-01  0.449E-01
 13.209  0.454E-01  0.454E-01
 13.219  0.459E-01  0.459E-01
 13.229  0.462E-01  0.462E-01
 13.239  0.465E-01  0.465E-01
 13.249  0.468E-01  0.468E-01
 13.259  0.471E-01  0.471E-01
 13.269  0.474E-01  0.474E-01
 13.279  0.477E-01  0.477E-01
 13.289  0.481E-01  0.481E-01
 13.299  0.486E-01  0.486E-01
 13.309  0.492E-01  0.492E-01
 13.319  0.499E-01  0.499E-01
 13.329  0.509E-01  0.509E-01
 13.339  0.520E-01  0.520E-01
 13.349  0.533E-01  0.533E-01
 13.359  0.548E-01  0.548E-01
 13.369  0.566E-01  0.566E-01
 13.379  0.585E-01  0.585E-01
 13.389  0.608E-01  0.608E-01
 13.399  0.632E-01  0.632E-01
 13.409  0.659E-01  0.659E-01
 13.419  0.688E-01  0.688E-01
 13.429  0.719E-01  0.719E-01
 13.439  0.753E-01  0.753E-01
 13.449  0.789E-01  0.789E-01
 13.459  0.827E-01  0.827E-01
 13.469  0.866E-01  0.866E-01
 13.479  0.908E-01  0.908E-01
 13.489  0.951E-01  0.951E-01
 13.499  0.995E-01  0.995E-01
 13.509  0.104E+00  0.104E+00
 13.519  0.109E+00  0.109E+00
 13.529  0.113E+00  0.113E+00
 13.539  0.118E+00  0.118E+00
 13.549  0.123E+00  0.123E+00
 13.559  0.127E+00  0.127E+00
 13.569  0.132E+00  0.132E+00
 13.579  0.136E+00  0.136E+00
 13.589  0.140E+00  0.140E+00
 13.599  0.144E+00  0.144E+00
 13.609  0.147E+00  0.147E+00
 13.619  0.150E+00  0.150E+00
 13.629  0.153E+00  0.153E+00
 13.639  0.155E+00  0.155E+00
 13.649  0.157E+00  0.157E+00
 13.659  0.158E+00  0.158E+00
 13.669  0.159E+00  0.159E+00
 13.679  0.160E+00  0.160E+00
 13.689  0.160E+00  0.160E+00
 13.699  0.160E+00  0.160E+00
 13.709  0.160E+00  0.160E+00
 13.719  0.159E+00  0.159E+00
 13.729  0.158E+00  0.158E+00
 13.739  0.157E+00  0.157E+00
 13.749  0.156E+00  0.156E+00
 13.759  0.155E+00  0.155E+00
 13.769  0.154E+00  0.154E+00
 13.779  0.153E+00  0.153E+00
 13.789  0.153E+00  0.153E+00
 13.799  0.153E+00  0.153E+00
 13.809  0.153E+00  0.153E+00
 13.819  0.153E+00  0.153E+00
 13.829  0.154E+00  0.154E+00
 13.839  0.156E+00  0.156E+00
 13.849  0.157E+00  0.157E+00
 13.859  0.159E+00  0.159E+00
 13.869  0.161E+00  0.161E+00
 13.879  0.163E+00  0.163E+00
 13.889  0.166E+00  0.166E+00
 13.899  0.168E+00  0.168E+00
 13.909  0.171E+00  0.171E+00
 13.919  0.173E+00  0.173E+00
 13.929  0.175E+00  0.175E+00
 13.939  0.176E+00  0.176E+00
 13.949  0.178E+00  0.178E+00
 13.959  0.179E+00  0.179E+00
 13.969  0.179E+00  0.179E+00
 13.979  0.179E+00  0.179E+00
 13.989  0.179E+00  0.179E+00
 13.999  0.178E+00  0.178E+00
 14.009  0.176E+00  0.176E+00
 14.019  0.175E+00  0.175E+00
 14.029  0.173E+00  0.173E+00
 14.039  0.171E+00  0.171E+00
 14.049  0.168E+00  0.168E+00
 14.059  0.166E+00  0.166E+00
 14.069  0.164E+00  0.164E+00
 14.079  0.162E+00  0.162E+00
 14.089  0.160E+00  0.160E+00
 14.099  0.158E+00  0.158E+00
 14.109  0.156E+00  0.156E+00
 14.119  0.155E+00  0.155E+00
 14.129  0.155E+00  0.155E+00
 14.139  0.154E+00  0.154E+00
 14.149  0.154E+00  0.154E+00
 14.159  0.155E+00  0.155E+00
 14.169  0.155E+00  0.155E+00
 14.179  0.157E+00  0.157E+00
 14.189  0.158E+00  0.158E+00
 14.199  0.159E+00  0.159E+00
 14.209  0.161E+00  0.161E+00
 14.219  0.163E+00  0.163E+00
 14.229  0.165E+00  0.165E+00
 14.239  0.166E+00  0.166E+00
 14.249  0.168E+00  0.168E+00
 14.259  0.169E+00  0.169E+00
 14.269  0.170E+00  0.170E+00
 14.279  0.171E+00  0.171E+00
 14.289  0.172E+00  0.172E+00
 14.299  0.173E+00  0.173E+00
 14.309  0.173E+00  0.173E+00
 14.319  0.173E+00  0.173E+00
 14.329  0.172E+00  0.172E+00
 14.339  0.171E+00  0.171E+00
 14.349  0.171E+00  0.171E+00
 14.359  0.170E+00  0.170E+00
 14.369  0.169E+00  0.169E+00
 14.379  0.167E+00  0.167E+00
 14.389  0.166E+00  0.166E+00
 14.399  0.165E+00  0.165E+00
 14.409  0.164E+00  0.164E+00
 14.419  0.163E+00  0.163E+00
 14.429  0.162E+00  0.162E+00
 14.439  0.162E+00  0.162E+00
 14.449  0.161E+00  0.161E+00
 14.459  0.161E+00  0.161E+00
 14.469  0.161E+00  0.161E+00
 14.479  0.161E+00  0.161E+00
 14.489  0.161E+00  0.161E+00
 14.499  0.161E+00  0.161E+00
 14.509  0.161E+00  0.161E+00
 14.519  0.161E+00  0.161E+00
 14.529  0.161E+00  0.161E+00
 14.539  0.161E+00  0.161E+00
 14.549  0.161E+00  0.161E+00
 14.559  0.161E+00  0.161E+00
 14.569  0.160E+00  0.160E+00
 14.579  0.160E+00  0.160E+00
 14.589  0.160E+00  0.160E+00
 14.599  0.159E+00  0.159E+00
 14.609  0.158E+00  0.158E+00
 14.619  0.157E+00  0.157E+00
 14.629  0.157E+00  0.157E+00
 14.639  0.156E+00  0.156E+00
 14.649  0.155E+00  0.155E+00
 14.659  0.154E+00  0.154E+00
 14.669  0.153E+00  0.153E+00
 14.679  0.152E+00  0.152E+00
 14.689  0.152E+00  0.152E+00
 14.699  0.151E+00  0.151E+00
 14.709  0.150E+00  0.150E+00
 14.719  0.150E+00  0.150E+00
 14.729  0.149E+00  0.149E+00
 14.739  0.149E+00  0.149E+00
 14.749  0.149E+00  0.149E+00
 14.759  0.148E+00  0.148E+00
 14.769  0.148E+00  0.148E+00
 14.779  0.148E+00  0.148E+00
 14.789  0.148E+00  0.148E+00
 14.799  0.147E+00  0.147E+00
 14.809  0.147E+00  0.147E+00
 14.819  0.147E+00  0.147E+00
 14.829  0.147E+00  0.147E+00
 14.839  0.147E+00  0.147E+00
 14.849  0.147E+00  0.147E+00
 14.859  0.147E+00  0.147E+00
 14.869  0.147E+00  0.147E+00
 14.879  0.147E+00  0.147E+00
 14.889  0.147E+00  0.147E+00
 14.899  0.147E+00  0.147E+00
 14.909  0.147E+00  0.147E+00
 14.919  0.146E+00  0.146E+00
 14.929  0.146E+00  0.146E+00
 14.939  0.145E+00  0.145E+00
 14.949  0.145E+00  0.145E+00
 14.959  0.144E+00  0.144E+00
 14.969  0.143E+00  0.143E+00
 14.979  0.142E+00  0.142E+00
 14.989  0.140E+00  0.140E+00
 14.999  0.138E+00  0.138E+00
 15.009  0.137E+00  0.137E+00
 15.019  0.135E+00  0.135E+00
 15.029  0.133E+00  0.133E+00
 15.039  0.131E+00  0.131E+00
 15.049  0.128E+00  0.128E+00
 15.059  0.126E+00  0.126E+00
 15.069  0.124E+00  0.124E+00
 15.079  0.123E+00  0.123E+00
 15.089  0.121E+00  0.121E+00
 15.099  0.119E+00  0.119E+00
 15.109  0.118E+00  0.118E+00
 15.119  0.117E+00  0.117E+00
 15.129  0.115E+00  0.115E+00
 15.139  0.114E+00  0.114E+00
 15.149  0.113E+00  0.113E+00
 15.159  0.112E+00  0.112E+00
 15.169  0.112E+00  0.112E+00
 15.179  0.111E+00  0.111E+00
 15.189  0.110E+00  0.110E+00
 15.199  0.109E+00  0.109E+00
 15.209  0.108E+00  0.108E+00
 15.219  0.106E+00  0.106E+00
 15.229  0.105E+00  0.105E+00
 15.239  0.103E+00  0.103E+00
 15.249  0.102E+00  0.102E+00
 15.259  0.100E+00  0.100E+00
 15.269  0.981E-01  0.981E-01
 15.279  0.962E-01  0.962E-01
 15.289  0.941E-01  0.941E-01
 15.299  0.920E-01  0.920E-01
 15.309  0.900E-01  0.900E-01
 15.319  0.879E-01  0.879E-01
 15.329  0.860E-01  0.860E-01
 15.339  0.841E-01  0.841E-01
 15.349  0.823E-01  0.823E-01
 15.359  0.807E-01  0.807E-01
 15.369  0.793E-01  0.793E-01
 15.379  0.781E-01  0.781E-01
 15.389  0.770E-01  0.770E-01
 15.399  0.762E-01  0.762E-01
 15.409  0.755E-01  0.755E-01
 15.419  0.750E-01  0.750E-01
 15.429  0.747E-01  0.747E-01
 15.439  0.745E-01  0.745E-01
 15.449  0.745E-01  0.745E-01
 15.459  0.745E-01  0.745E-01
 15.469  0.745E-01  0.745E-01
 15.479  0.746E-01  0.746E-01
 15.489  0.747E-01  0.747E-01
 15.499  0.747E-01  0.747E-01
 15.509  0.746E-01  0.746E-01
 15.519  0.744E-01  0.744E-01
 15.529  0.741E-01  0.741E-01
 15.539  0.736E-01  0.736E-01
 15.549  0.730E-01  0.730E-01
 15.559  0.722E-01  0.722E-01
 15.569  0.713E-01  0.713E-01
 15.579  0.703E-01  0.703E-01
 15.589  0.691E-01  0.691E-01
 15.599  0.678E-01  0.678E-01
 15.609  0.664E-01  0.664E-01
 15.619  0.649E-01  0.649E-01
 15.629  0.634E-01  0.634E-01
 15.639  0.618E-01  0.618E-01
 15.649  0.602E-01  0.602E-01
 15.659  0.586E-01  0.586E-01
 15.669  0.571E-01  0.571E-01
 15.679  0.555E-01  0.555E-01
 15.689  0.540E-01  0.540E-01
 15.699  0.525E-01  0.525E-01
 15.709  0.511E-01  0.511E-01
 15.719  0.497E-01  0.497E-01
 15.729  0.484E-01  0.484E-01
 15.739  0.471E-01  0.471E-01
 15.749  0.459E-01  0.459E-01
 15.759  0.448E-01  0.448E-01
 15.769  0.437E-01  0.437E-01
 15.779  0.427E-01  0.427E-01
 15.789  0.418E-01  0.418E-01
 15.799  0.409E-01  0.409E-01
 15.809  0.400E-01  0.400E-01
 15.819  0.392E-01  0.392E-01
 15.829  0.385E-01  0.385E-01
 15.839  0.378E-01  0.378E-01
 15.849  0.372E-01  0.372E-01
 15.859  0.366E-01  0.366E-01
 15.869  0.361E-01  0.361E-01
 15.879  0.356E-01  0.356E-01
 15.889  0.351E-01  0.351E-01
 15.899  0.346E-01  0.346E-01
 15.909  0.342E-01  0.342E-01
 15.919  0.338E-01  0.338E-01
 15.929  0.334E-01  0.334E-01
 15.939  0.330E-01  0.330E-01
 15.949  0.326E-01  0.326E-01
 15.959  0.323E-01  0.323E-01
 15.969  0.320E-01  0.320E-01
 15.979  0.317E-01  0.317E-01
 15.989  0.314E-01  0.314E-01
 15.999  0.312E-01  0.312E-01
 16.009  0.309E-01  0.309E-01
 16.019  0.307E-01  0.307E-01
 16.029  0.305E-01  0.305E-01
 16.039  0.304E-01  0.304E-01
 16.049  0.302E-01  0.302E-01
 16.059  0.301E-01  0.301E-01
 16.069  0.300E-01  0.300E-01
 16.079  0.298E-01  0.298E-01
 16.089  0.297E-01  0.297E-01
 16.099  0.295E-01  0.295E-01
 16.109  0.294E-01  0.294E-01
 16.119  0.292E-01  0.292E-01
 16.129  0.290E-01  0.290E-01
 16.139  0.287E-01  0.287E-01
 16.149  0.285E-01  0.285E-01
 16.159  0.283E-01  0.283E-01
 16.169  0.280E-01  0.280E-01
 16.179  0.278E-01  0.278E-01
 16.189  0.276E-01  0.276E-01
 16.199  0.274E-01  0.274E-01
 16.209  0.272E-01  0.272E-01
 16.219  0.270E-01  0.270E-01
 16.229  0.269E-01  0.269E-01
 16.239  0.268E-01  0.268E-01
 16.249  0.268E-01  0.268E-01
 16.259  0.268E-01  0.268E-01
 16.269  0.268E-01  0.268E-01
 16.279  0.269E-01  0.269E-01
 16.289  0.270E-01  0.270E-01
 16.299  0.271E-01  0.271E-01
 16.309  0.273E-01  0.273E-01
 16.319  0.275E-01  0.275E-01
 16.329  0.277E-01  0.277E-01
 16.339  0.279E-01  0.279E-01
 16.349  0.281E-01  0.281E-01
 16.359  0.283E-01  0.283E-01
 16.369  0.285E-01  0.285E-01
 16.379  0.286E-01  0.286E-01
 16.389  0.288E-01  0.288E-01
 16.399  0.289E-01  0.289E-01
 16.409  0.290E-01  0.290E-01
 16.419  0.290E-01  0.290E-01
 16.429  0.291E-01  0.291E-01
 16.439  0.291E-01  0.291E-01
 16.449  0.291E-01  0.291E-01
 16.459  0.291E-01  0.291E-01
 16.469  0.290E-01  0.290E-01
 16.479  0.290E-01  0.290E-01
 16.489  0.289E-01  0.289E-01
 16.499  0.289E-01  0.289E-01
 16.509  0.288E-01  0.288E-01
 16.519  0.288E-01  0.288E-01
 16.529  0.287E-01  0.287E-01
 16.539  0.287E-01  0.287E-01
 16.549  0.286E-01  0.286E-01
 16.559  0.285E-01  0.285E-01
 16.569  0.285E-01  0.285E-01
 16.579  0.284E-01  0.284E-01
 16.589  0.284E-01  0.284E-01
 16.599  0.283E-01  0.283E-01
 16.609  0.282E-01  0.282E-01
 16.619  0.282E-01  0.282E-01
 16.629  0.281E-01  0.281E-01
 16.639  0.279E-01  0.279E-01
 16.649  0.278E-01  0.278E-01
 16.659  0.276E-01  0.276E-01
 16.669  0.275E-01  0.275E-01
 16.679  0.273E-01  0.273E-01
 16.689  0.271E-01  0.271E-01
 16.699  0.268E-01  0.268E-01
 16.709  0.266E-01  0.266E-01
 16.719  0.263E-01  0.263E-01
 16.729  0.260E-01  0.260E-01
 16.739  0.258E-01  0.258E-01
 16.749  0.255E-01  0.255E-01
 16.759  0.252E-01  0.252E-01
 16.769  0.249E-01  0.249E-01
 16.779  0.246E-01  0.246E-01
 16.789  0.243E-01  0.243E-01
 16.799  0.241E-01  0.241E-01
 16.809  0.238E-01  0.238E-01
 16.819  0.236E-01  0.236E-01
 16.829  0.233E-01  0.233E-01
 16.839  0.231E-01  0.231E-01
 16.849  0.229E-01  0.229E-01
 16.859  0.228E-01  0.228E-01
 16.869  0.226E-01  0.226E-01
 16.879  0.225E-01  0.225E-01
 16.889  0.224E-01  0.224E-01
 16.899  0.223E-01  0.223E-01
 16.909  0.223E-01  0.223E-01
 16.919  0.222E-01  0.222E-01
 16.929  0.222E-01  0.222E-01
 16.939  0.223E-01  0.223E-01
 16.949  0.223E-01  0.223E-01
 16.959  0.224E-01  0.224E-01
 16.969  0.224E-01  0.224E-01
 16.979  0.226E-01  0.226E-01
 16.989  0.227E-01  0.227E-01
 16.999  0.228E-01  0.228E-01
 17.009  0.229E-01  0.229E-01
 17.019  0.231E-01  0.231E-01
 17.029  0.233E-01  0.233E-01
 17.039  0.234E-01  0.234E-01
 17.049  0.236E-01  0.236E-01
 17.059  0.237E-01  0.237E-01
 17.069  0.239E-01  0.239E-01
 17.079  0.240E-01  0.240E-01
 17.089  0.242E-01  0.242E-01
 17.099  0.243E-01  0.243E-01
 17.109  0.244E-01  0.244E-01
 17.119  0.246E-01  0.246E-01
 17.129  0.247E-01  0.247E-01
 17.139  0.248E-01  0.248E-01
 17.149  0.249E-01  0.249E-01
 17.159  0.250E-01  0.250E-01
 17.169  0.251E-01  0.251E-01
 17.179  0.252E-01  0.252E-01
 17.189  0.253E-01  0.253E-01
 17.199  0.254E-01  0.254E-01
 17.209  0.254E-01  0.254E-01
 17.219  0.255E-01  0.255E-01
 17.229  0.255E-01  0.255E-01
 17.239  0.255E-01  0.255E-01
 17.249  0.255E-01  0.255E-01
 17.259  0.254E-01  0.254E-01
 17.269  0.253E-01  0.253E-01
 17.279  0.252E-01  0.252E-01
 17.289  0.251E-01  0.251E-01
 17.299  0.249E-01  0.249E-01
 17.309  0.247E-01  0.247E-01
 17.319  0.244E-01  0.244E-01
 17.329  0.242E-01  0.242E-01
 17.339  0.238E-01  0.238E-01
 17.349  0.235E-01  0.235E-01
 17.359  0.231E-01  0.231E-01
 17.369  0.227E-01  0.227E-01
 17.379  0.223E-01  0.223E-01
 17.389  0.219E-01  0.219E-01
 17.399  0.215E-01  0.215E-01
 17.409  0.211E-01  0.211E-01
 17.419  0.206E-01  0.206E-01
 17.429  0.202E-01  0.202E-01
 17.439  0.198E-01  0.198E-01
 17.449  0.194E-01  0.194E-01
 17.459  0.190E-01  0.190E-01
 17.469  0.186E-01  0.186E-01
 17.479  0.181E-01  0.181E-01
 17.489  0.177E-01  0.177E-01
 17.499  0.173E-01  0.173E-01
 17.509  0.169E-01  0.169E-01
 17.519  0.165E-01  0.165E-01
 17.529  0.160E-01  0.160E-01
 17.539  0.156E-01  0.156E-01
 17.549  0.151E-01  0.151E-01
 17.559  0.146E-01  0.146E-01
 17.569  0.140E-01  0.140E-01
 17.579  0.135E-01  0.135E-01
 17.589  0.129E-01  0.129E-01
 17.599  0.124E-01  0.124E-01
 17.609  0.118E-01  0.118E-01
 17.619  0.112E-01  0.112E-01
 17.629  0.106E-01  0.106E-01
 17.639  0.100E-01  0.100E-01
 17.649  0.942E-02  0.942E-02
 17.659  0.885E-02  0.885E-02
 17.669  0.829E-02  0.829E-02
 17.679  0.776E-02  0.776E-02
 17.689  0.725E-02  0.725E-02
 17.699  0.677E-02  0.677E-02
 17.709  0.632E-02  0.632E-02
 17.719  0.590E-02  0.590E-02
 17.729  0.551E-02  0.551E-02
 17.739  0.516E-02  0.516E-02
 17.749  0.484E-02  0.484E-02
 17.759  0.456E-02  0.456E-02
 17.769  0.431E-02  0.431E-02
 17.779  0.411E-02  0.411E-02
 17.789  0.394E-02  0.394E-02
 17.799  0.381E-02  0.381E-02
 17.809  0.371E-02  0.371E-02
 17.819  0.366E-02  0.366E-02
 17.829  0.365E-02  0.365E-02
 17.839  0.367E-02  0.367E-02
 17.849  0.374E-02  0.374E-02
 17.859  0.385E-02  0.385E-02
 17.869  0.399E-02  0.399E-02
 17.879  0.418E-02  0.418E-02
 17.889  0.441E-02  0.441E-02
 17.899  0.467E-02  0.467E-02
 17.909  0.497E-02  0.497E-02
 17.919  0.531E-02  0.531E-02
 17.929  0.568E-02  0.568E-02
 17.939  0.608E-02  0.608E-02
 17.949  0.650E-02  0.650E-02
 17.959  0.694E-02  0.694E-02
 17.969  0.739E-02  0.739E-02
 17.979  0.786E-02  0.786E-02
 17.989  0.833E-02  0.833E-02
 17.999  0.880E-02  0.880E-02
 18.009  0.926E-02  0.926E-02
 18.019  0.971E-02  0.971E-02
 18.029  0.101E-01  0.101E-01
 18.039  0.106E-01  0.106E-01
 18.049  0.109E-01  0.109E-01
 18.059  0.113E-01  0.113E-01
 18.069  0.116E-01  0.116E-01
 18.079  0.119E-01  0.119E-01
 18.089  0.122E-01  0.122E-01
 18.099  0.124E-01  0.124E-01
 18.109  0.126E-01  0.126E-01
 18.119  0.128E-01  0.128E-01
 18.129  0.129E-01  0.129E-01
 18.139  0.131E-01  0.131E-01
 18.149  0.132E-01  0.132E-01
 18.159  0.133E-01  0.133E-01
 18.169  0.134E-01  0.134E-01
 18.179  0.135E-01  0.135E-01
 18.189  0.136E-01  0.136E-01
 18.199  0.137E-01  0.137E-01
 18.209  0.138E-01  0.138E-01
 18.219  0.138E-01  0.138E-01
 18.229  0.139E-01  0.139E-01
 18.239  0.140E-01  0.140E-01
 18.249  0.140E-01  0.140E-01
 18.259  0.141E-01  0.141E-01
 18.269  0.142E-01  0.142E-01
 18.279  0.142E-01  0.142E-01
 18.289  0.143E-01  0.143E-01
 18.299  0.143E-01  0.143E-01
 18.309  0.144E-01  0.144E-01
 18.319  0.144E-01  0.144E-01
 18.329  0.145E-01  0.145E-01
 18.339  0.145E-01  0.145E-01
 18.349  0.145E-01  0.145E-01
 18.359  0.146E-01  0.146E-01
 18.369  0.146E-01  0.146E-01
 18.379  0.147E-01  0.147E-01
 18.389  0.147E-01  0.147E-01
 18.399  0.148E-01  0.148E-01
 18.409  0.148E-01  0.148E-01
 18.419  0.149E-01  0.149E-01
 18.429  0.150E-01  0.150E-01
 18.439  0.151E-01  0.151E-01
 18.449  0.152E-01  0.152E-01
 18.459  0.153E-01  0.153E-01
 18.469  0.154E-01  0.154E-01
 18.479  0.155E-01  0.155E-01
 18.489  0.157E-01  0.157E-01
 18.499  0.159E-01  0.159E-01
 18.509  0.160E-01  0.160E-01
 18.519  0.162E-01  0.162E-01
 18.529  0.165E-01  0.165E-01
 18.539  0.167E-01  0.167E-01
 18.549  0.170E-01  0.170E-01
 18.559  0.172E-01  0.172E-01
 18.569  0.176E-01  0.176E-01
 18.579  0.179E-01  0.179E-01
 18.589  0.182E-01  0.182E-01
 18.599  0.186E-01  0.186E-01
 18.609  0.190E-01  0.190E-01
 18.619  0.194E-01  0.194E-01
 18.629  0.198E-01  0.198E-01
 18.639  0.202E-01  0.202E-01
 18.649  0.207E-01  0.207E-01
 18.659  0.211E-01  0.211E-01
 18.669  0.216E-01  0.216E-01
 18.679  0.220E-01  0.220E-01
 18.689  0.225E-01  0.225E-01
 18.699  0.229E-01  0.229E-01
 18.709  0.234E-01  0.234E-01
 18.719  0.238E-01  0.238E-01
 18.729  0.242E-01  0.242E-01
 18.739  0.246E-01  0.246E-01
 18.749  0.250E-01  0.250E-01
 18.759  0.253E-01  0.253E-01
 18.769  0.256E-01  0.256E-01
 18.779  0.259E-01  0.259E-01
 18.789  0.262E-01  0.262E-01
 18.799  0.264E-01  0.264E-01
 18.809  0.265E-01  0.265E-01
 18.819  0.267E-01  0.267E-01
 18.829  0.268E-01  0.268E-01
 18.839  0.268E-01  0.268E-01
 18.849  0.268E-01  0.268E-01
 18.859  0.268E-01  0.268E-01
 18.869  0.267E-01  0.267E-01
 18.879  0.267E-01  0.267E-01
 18.889  0.266E-01  0.266E-01
 18.899  0.266E-01  0.266E-01
 18.909  0.266E-01  0.266E-01
 18.919  0.265E-01  0.265E-01
 18.929  0.266E-01  0.266E-01
 18.939  0.266E-01  0.266E-01
 18.949  0.267E-01  0.267E-01
 18.959  0.268E-01  0.268E-01
 18.969  0.270E-01  0.270E-01
 18.979  0.271E-01  0.271E-01
 18.989  0.274E-01  0.274E-01
 18.999  0.276E-01  0.276E-01
 19.009  0.278E-01  0.278E-01
 19.019  0.281E-01  0.281E-01
 19.029  0.283E-01  0.283E-01
 19.039  0.285E-01  0.285E-01
 19.049  0.287E-01  0.287E-01
 19.059  0.289E-01  0.289E-01
 19.069  0.290E-01  0.290E-01
 19.079  0.291E-01  0.291E-01
 19.089  0.291E-01  0.291E-01
 19.099  0.291E-01  0.291E-01
 19.109  0.291E-01  0.291E-01
 19.119  0.290E-01  0.290E-01
 19.129  0.288E-01  0.288E-01
 19.139  0.287E-01  0.287E-01
 19.149  0.285E-01  0.285E-01
 19.159  0.282E-01  0.282E-01
 19.169  0.280E-01  0.280E-01
 19.179  0.278E-01  0.278E-01
 19.189  0.275E-01  0.275E-01
 19.199  0.273E-01  0.273E-01
 19.209  0.270E-01  0.270E-01
 19.219  0.268E-01  0.268E-01
 19.229  0.265E-01  0.265E-01
 19.239  0.263E-01  0.263E-01
 19.249  0.261E-01  0.261E-01
 19.259  0.260E-01  0.260E-01
 19.269  0.258E-01  0.258E-01
 19.279  0.257E-01  0.257E-01
 19.289  0.256E-01  0.256E-01
 19.299  0.255E-01  0.255E-01
 19.309  0.255E-01  0.255E-01
 19.319  0.255E-01  0.255E-01
 19.329  0.255E-01  0.255E-01
 19.339  0.255E-01  0.255E-01
 19.349  0.255E-01  0.255E-01
 19.359  0.255E-01  0.255E-01
 19.369  0.255E-01  0.255E-01
 19.379  0.255E-01  0.255E-01
 19.389  0.254E-01  0.254E-01
 19.399  0.254E-01  0.254E-01
 19.409  0.252E-01  0.252E-01
 19.419  0.251E-01  0.251E-01
 19.429  0.249E-01  0.249E-01
 19.439  0.246E-01  0.246E-01
 19.449  0.243E-01  0.243E-01
 19.459  0.240E-01  0.240E-01
 19.469  0.236E-01  0.236E-01
 19.479  0.231E-01  0.231E-01
 19.489  0.227E-01  0.227E-01
 19.499  0.222E-01  0.222E-01
 19.509  0.217E-01  0.217E-01
 19.519  0.212E-01  0.212E-01
 19.529  0.207E-01  0.207E-01
 19.539  0.202E-01  0.202E-01
 19.549  0.197E-01  0.197E-01
 19.559  0.193E-01  0.193E-01
 19.569  0.189E-01  0.189E-01
 19.579  0.185E-01  0.185E-01
 19.589  0.182E-01  0.182E-01
 19.599  0.179E-01  0.179E-01
 19.609  0.176E-01  0.176E-01
 19.619  0.173E-01  0.173E-01
 19.629  0.171E-01  0.171E-01
 19.639  0.169E-01  0.169E-01
 19.649  0.167E-01  0.167E-01
 19.659  0.165E-01  0.165E-01
 19.669  0.163E-01  0.163E-01
 19.679  0.161E-01  0.161E-01
 19.689  0.159E-01  0.159E-01
 19.699  0.157E-01  0.157E-01
 19.709  0.154E-01  0.154E-01
 19.719  0.152E-01  0.152E-01
 19.729  0.149E-01  0.149E-01
 19.739  0.147E-01  0.147E-01
 19.749  0.144E-01  0.144E-01
 19.759  0.142E-01  0.142E-01
 19.769  0.139E-01  0.139E-01
 19.779  0.136E-01  0.136E-01
 19.789  0.133E-01  0.133E-01
 19.799  0.130E-01  0.130E-01
 19.809  0.128E-01  0.128E-01
 19.819  0.125E-01  0.125E-01
 19.829  0.122E-01  0.122E-01
 19.839  0.120E-01  0.120E-01
 19.849  0.117E-01  0.117E-01
 19.859  0.115E-01  0.115E-01
 19.869  0.112E-01  0.112E-01
 19.879  0.110E-01  0.110E-01
 19.889  0.107E-01  0.107E-01
 19.899  0.105E-01  0.105E-01
 19.909  0.102E-01  0.102E-01
 19.919  0.100E-01  0.100E-01
 19.929  0.977E-02  0.977E-02
 19.939  0.955E-02  0.955E-02
 19.949  0.934E-02  0.934E-02
 19.959  0.914E-02  0.914E-02
 19.969  0.896E-02  0.896E-02
 19.979  0.880E-02  0.880E-02
 19.989  0.866E-02  0.866E-02
 19.999  0.855E-02  0.855E-02
 20.009  0.846E-02  0.846E-02
 20.019  0.841E-02  0.841E-02
 20.029  0.839E-02  0.839E-02
 20.039  0.841E-02  0.841E-02
 20.049  0.847E-02  0.847E-02
 20.059  0.856E-02  0.856E-02
 20.069  0.869E-02  0.869E-02
 20.079  0.885E-02  0.885E-02
 20.089  0.905E-02  0.905E-02
 20.099  0.928E-02  0.928E-02
 20.109  0.954E-02  0.954E-02
 20.119  0.983E-02  0.983E-02
 20.129  0.101E-01  0.101E-01
 20.139  0.105E-01  0.105E-01
 20.149  0.108E-01  0.108E-01
 20.159  0.112E-01  0.112E-01
 20.169  0.115E-01  0.115E-01
 20.179  0.119E-01  0.119E-01
 20.189  0.123E-01  0.123E-01
 20.199  0.126E-01  0.126E-01
 20.209  0.130E-01  0.130E-01
 20.219  0.133E-01  0.133E-01
 20.229  0.137E-01  0.137E-01
 20.239  0.140E-01  0.140E-01
 20.249  0.143E-01  0.143E-01
 20.259  0.146E-01  0.146E-01
 20.269  0.149E-01  0.149E-01
 20.279  0.152E-01  0.152E-01
 20.289  0.155E-01  0.155E-01
 20.299  0.158E-01  0.158E-01
 20.309  0.160E-01  0.160E-01
 20.319  0.162E-01  0.162E-01
 20.329  0.164E-01  0.164E-01
 20.339  0.166E-01  0.166E-01
 20.349  0.168E-01  0.168E-01
 20.359  0.169E-01  0.169E-01
 20.369  0.171E-01  0.171E-01
 20.379  0.171E-01  0.171E-01
 20.389  0.172E-01  0.172E-01
 20.399  0.172E-01  0.172E-01
 20.409  0.172E-01  0.172E-01
 20.419  0.172E-01  0.172E-01
 20.429  0.171E-01  0.171E-01
 20.439  0.170E-01  0.170E-01
 20.449  0.169E-01  0.169E-01
 20.459  0.167E-01  0.167E-01
 20.469  0.165E-01  0.165E-01
 20.479  0.164E-01  0.164E-01
 20.489  0.161E-01  0.161E-01
 20.499  0.159E-01  0.159E-01
 20.509  0.157E-01  0.157E-01
 20.519  0.154E-01  0.154E-01
 20.529  0.152E-01  0.152E-01
 20.539  0.149E-01  0.149E-01
 20.549  0.146E-01  0.146E-01
 20.559  0.144E-01  0.144E-01
 20.569  0.141E-01  0.141E-01
 20.579  0.139E-01  0.139E-01
 20.589  0.137E-01  0.137E-01
 20.599  0.134E-01  0.134E-01
 20.609  0.133E-01  0.133E-01
 20.619  0.131E-01  0.131E-01
 20.629  0.130E-01  0.130E-01
 20.639  0.129E-01  0.129E-01
 20.649  0.129E-01  0.129E-01
 20.659  0.129E-01  0.129E-01
 20.669  0.130E-01  0.130E-01
 20.679  0.131E-01  0.131E-01
 20.689  0.133E-01  0.133E-01
 20.699  0.136E-01  0.136E-01
 20.709  0.138E-01  0.138E-01
 20.719  0.142E-01  0.142E-01
 20.729  0.145E-01  0.145E-01
 20.739  0.149E-01  0.149E-01
 20.749  0.153E-01  0.153E-01
 20.759  0.157E-01  0.157E-01
 20.769  0.162E-01  0.162E-01
 20.779  0.165E-01  0.165E-01
 20.789  0.169E-01  0.169E-01
 20.799  0.172E-01  0.172E-01
 20.809  0.175E-01  0.175E-01
 20.819  0.178E-01  0.178E-01
 20.829  0.180E-01  0.180E-01
 20.839  0.181E-01  0.181E-01
 20.849  0.182E-01  0.182E-01
 20.859  0.182E-01  0.182E-01
 20.869  0.181E-01  0.181E-01
 20.879  0.180E-01  0.180E-01
 20.889  0.179E-01  0.179E-01
 20.899  0.177E-01  0.177E-01
 20.909  0.175E-01  0.175E-01
 20.919  0.172E-01  0.172E-01
 20.929  0.170E-01  0.170E-01
 20.939  0.167E-01  0.167E-01
 20.949  0.164E-01  0.164E-01
 20.959  0.161E-01  0.161E-01
 20.969  0.159E-01  0.159E-01
 20.979  0.156E-01  0.156E-01
 20.989  0.154E-01  0.154E-01
 20.999  0.152E-01  0.152E-01
 21.009  0.150E-01  0.150E-01
 21.019  0.148E-01  0.148E-01
 21.029  0.146E-01  0.146E-01
 21.039  0.145E-01  0.145E-01
 21.049  0.144E-01  0.144E-01
 21.059  0.143E-01  0.143E-01
 21.069  0.142E-01  0.142E-01
 21.079  0.141E-01  0.141E-01
 21.089  0.141E-01  0.141E-01
 21.099  0.140E-01  0.140E-01
 21.109  0.140E-01  0.140E-01
 21.119  0.140E-01  0.140E-01
 21.129  0.140E-01  0.140E-01
 21.139  0.140E-01  0.140E-01
 21.149  0.140E-01  0.140E-01
 21.159  0.140E-01  0.140E-01
 21.169  0.141E-01  0.141E-01
 21.179  0.141E-01  0.141E-01
 21.189  0.142E-01  0.142E-01
 21.199  0.143E-01  0.143E-01
 21.209  0.144E-01  0.144E-01
 21.219  0.145E-01  0.145E-01
 21.229  0.146E-01  0.146E-01
 21.239  0.147E-01  0.147E-01
 21.249  0.148E-01  0.148E-01
 21.259  0.149E-01  0.149E-01
 21.269  0.150E-01  0.150E-01
 21.279  0.150E-01  0.150E-01
 21.289  0.151E-01  0.151E-01
 21.299  0.152E-01  0.152E-01
 21.309  0.152E-01  0.152E-01
 21.319  0.152E-01  0.152E-01
 21.329  0.152E-01  0.152E-01
 21.339  0.152E-01  0.152E-01
 21.349  0.152E-01  0.152E-01
 21.359  0.151E-01  0.151E-01
 21.369  0.151E-01  0.151E-01
 21.379  0.150E-01  0.150E-01
 21.389  0.149E-01  0.149E-01
 21.399  0.148E-01  0.148E-01
 21.409  0.147E-01  0.147E-01
 21.419  0.147E-01  0.147E-01
 21.429  0.146E-01  0.146E-01
 21.439  0.145E-01  0.145E-01
 21.449  0.144E-01  0.144E-01
 21.459  0.143E-01  0.143E-01
 21.469  0.142E-01  0.142E-01
 21.479  0.141E-01  0.141E-01
 21.489  0.140E-01  0.140E-01
 21.499  0.140E-01  0.140E-01
 21.509  0.139E-01  0.139E-01
 21.519  0.138E-01  0.138E-01
 21.529  0.138E-01  0.138E-01
 21.539  0.137E-01  0.137E-01
 21.549  0.137E-01  0.137E-01
 21.559  0.136E-01  0.136E-01
 21.569  0.136E-01  0.136E-01
 21.579  0.135E-01  0.135E-01
 21.589  0.135E-01  0.135E-01
 21.599  0.134E-01  0.134E-01
 21.609  0.133E-01  0.133E-01
 21.619  0.132E-01  0.132E-01
 21.629  0.131E-01  0.131E-01
 21.639  0.130E-01  0.130E-01
 21.649  0.129E-01  0.129E-01
 21.659  0.127E-01  0.127E-01
 21.669  0.126E-01  0.126E-01
 21.679  0.124E-01  0.124E-01
 21.689  0.122E-01  0.122E-01
 21.699  0.121E-01  0.121E-01
 21.709  0.119E-01  0.119E-01
 21.719  0.117E-01  0.117E-01
 21.729  0.115E-01  0.115E-01
 21.739  0.113E-01  0.113E-01
 21.749  0.111E-01  0.111E-01
 21.759  0.109E-01  0.109E-01
 21.769  0.107E-01  0.107E-01
 21.779  0.106E-01  0.106E-01
 21.789  0.105E-01  0.105E-01
 21.799  0.104E-01  0.104E-01
 21.809  0.104E-01  0.104E-01
 21.819  0.104E-01  0.104E-01
 21.829  0.104E-01  0.104E-01
 21.839  0.104E-01  0.104E-01
 21.849  0.105E-01  0.105E-01
 21.859  0.106E-01  0.106E-01
 21.869  0.108E-01  0.108E-01
 21.879  0.109E-01  0.109E-01
 21.889  0.111E-01  0.111E-01
 21.899  0.113E-01  0.113E-01
 21.909  0.115E-01  0.115E-01
 21.919  0.117E-01  0.117E-01
 21.929  0.119E-01  0.119E-01
 21.939  0.121E-01  0.121E-01
 21.949  0.123E-01  0.123E-01
 21.959  0.125E-01  0.125E-01
 21.969  0.127E-01  0.127E-01
 21.979  0.128E-01  0.128E-01
 21.989  0.130E-01  0.130E-01
 21.999  0.131E-01  0.131E-01
 22.009  0.133E-01  0.133E-01
 22.019  0.135E-01  0.135E-01
 22.029  0.136E-01  0.136E-01
 22.039  0.138E-01  0.138E-01
 22.049  0.140E-01  0.140E-01
 22.059  0.142E-01  0.142E-01
 22.069  0.145E-01  0.145E-01
 22.079  0.147E-01  0.147E-01
 22.089  0.150E-01  0.150E-01
 22.099  0.154E-01  0.154E-01
 22.109  0.157E-01  0.157E-01
 22.119  0.161E-01  0.161E-01
 22.129  0.166E-01  0.166E-01
 22.139  0.170E-01  0.170E-01
 22.149  0.175E-01  0.175E-01
 22.159  0.180E-01  0.180E-01
 22.169  0.185E-01  0.185E-01
 22.179  0.190E-01  0.190E-01
 22.189  0.195E-01  0.195E-01
 22.199  0.200E-01  0.200E-01
 22.209  0.206E-01  0.206E-01
 22.219  0.211E-01  0.211E-01
 22.229  0.216E-01  0.216E-01
 22.239  0.220E-01  0.220E-01
 22.249  0.225E-01  0.225E-01
 22.259  0.229E-01  0.229E-01
 22.269  0.233E-01  0.233E-01
 22.279  0.236E-01  0.236E-01
 22.289  0.240E-01  0.240E-01
 22.299  0.243E-01  0.243E-01
 22.309  0.245E-01  0.245E-01
 22.319  0.248E-01  0.248E-01
 22.329  0.250E-01  0.250E-01
 22.339  0.251E-01  0.251E-01
 22.349  0.252E-01  0.252E-01
 22.359  0.253E-01  0.253E-01
 22.369  0.253E-01  0.253E-01
 22.379  0.253E-01  0.253E-01
 22.389  0.253E-01  0.253E-01
 22.399  0.251E-01  0.251E-01
 22.409  0.250E-01  0.250E-01
 22.419  0.247E-01  0.247E-01
 22.429  0.245E-01  0.245E-01
 22.439  0.241E-01  0.241E-01
 22.449  0.237E-01  0.237E-01
 22.459  0.232E-01  0.232E-01
 22.469  0.227E-01  0.227E-01
 22.479  0.222E-01  0.222E-01
 22.489  0.215E-01  0.215E-01
 22.499  0.209E-01  0.209E-01
 22.509  0.202E-01  0.202E-01
 22.519  0.195E-01  0.195E-01
 22.529  0.189E-01  0.189E-01
 22.539  0.182E-01  0.182E-01
 22.549  0.175E-01  0.175E-01
 22.559  0.168E-01  0.168E-01
 22.569  0.162E-01  0.162E-01
 22.579  0.156E-01  0.156E-01
 22.589  0.150E-01  0.150E-01
 22.599  0.145E-01  0.145E-01
 22.609  0.140E-01  0.140E-01
 22.619  0.135E-01  0.135E-01
 22.629  0.131E-01  0.131E-01
 22.639  0.127E-01  0.127E-01
 22.649  0.123E-01  0.123E-01
 22.659  0.119E-01  0.119E-01
 22.669  0.116E-01  0.116E-01
 22.679  0.112E-01  0.112E-01
 22.689  0.109E-01  0.109E-01
 22.699  0.105E-01  0.105E-01
 22.709  0.101E-01  0.101E-01
 22.719  0.976E-02  0.976E-02
 22.729  0.937E-02  0.937E-02
 22.739  0.896E-02  0.896E-02
 22.749  0.854E-02  0.854E-02
 22.759  0.811E-02  0.811E-02
 22.769  0.767E-02  0.767E-02
 22.779  0.722E-02  0.722E-02
 22.789  0.678E-02  0.678E-02
 22.799  0.633E-02  0.633E-02
 22.809  0.588E-02  0.588E-02
 22.819  0.545E-02  0.545E-02
 22.829  0.503E-02  0.503E-02
 22.839  0.462E-02  0.462E-02
 22.849  0.423E-02  0.423E-02
 22.859  0.386E-02  0.386E-02
 22.869  0.351E-02  0.351E-02
 22.879  0.318E-02  0.318E-02
 22.889  0.288E-02  0.288E-02
 22.899  0.259E-02  0.259E-02
 22.909  0.233E-02  0.233E-02
 22.919  0.209E-02  0.209E-02
 22.929  0.187E-02  0.187E-02
 22.939  0.166E-02  0.166E-02
 22.949  0.148E-02  0.148E-02
 22.959  0.131E-02  0.131E-02
 22.969  0.115E-02  0.115E-02
 22.979  0.101E-02  0.101E-02
 22.989  0.884E-03  0.884E-03
 22.999  0.769E-03  0.769E-03
 23.009  0.665E-03  0.665E-03
 23.019  0.572E-03  0.572E-03
 23.029  0.490E-03  0.490E-03
 23.039  0.416E-03  0.416E-03
 23.049  0.351E-03  0.351E-03
 23.059  0.294E-03  0.294E-03
 23.069  0.245E-03  0.245E-03
 23.079  0.202E-03  0.202E-03
 23.089  0.166E-03  0.166E-03
 23.099  0.134E-03  0.134E-03
 23.109  0.108E-03  0.108E-03
 23.119  0.864E-04  0.864E-04
 23.129  0.684E-04  0.684E-04
 23.139  0.536E-04  0.536E-04
 23.149  0.416E-04  0.416E-04
 23.159  0.320E-04  0.320E-04
 23.169  0.244E-04  0.244E-04
 23.179  0.184E-04  0.184E-04
 23.189  0.137E-04  0.137E-04
 23.199  0.102E-04  0.102E-04
 23.209  0.743E-05  0.743E-05
 23.219  0.539E-05  0.539E-05
 23.229  0.387E-05  0.387E-05
 23.239  0.275E-05  0.275E-05
 23.249  0.193E-05  0.193E-05
 23.259  0.134E-05  0.134E-05
 23.269  0.925E-06  0.925E-06
 23.279  0.631E-06  0.631E-06
 23.289  0.426E-06  0.426E-06
 23.299  0.284E-06  0.284E-06
 23.309  0.188E-06  0.188E-06
 23.319  0.123E-06  0.123E-06
 23.329  0.797E-07  0.797E-07
 23.339  0.512E-07  0.512E-07
 23.349  0.325E-07  0.325E-07
 23.359  0.205E-07  0.205E-07
 23.369  0.128E-07  0.128E-07
 23.379  0.788E-08  0.788E-08
 23.389  0.483E-08  0.483E-08
 23.399  0.293E-08  0.293E-08
 23.409  0.177E-08  0.177E-08
 23.419  0.106E-08  0.106E-08
 23.429  0.630E-09  0.630E-09
 23.439  0.372E-09  0.372E-09
 23.449  0.219E-09  0.219E-09
 23.459  0.129E-09  0.129E-09
 23.469  0.754E-10  0.754E-10
 23.479  0.441E-10  0.441E-10
 23.489  0.258E-10  0.258E-10
 23.499  0.151E-10  0.151E-10
 23.509  0.885E-11  0.885E-11
 23.519  0.520E-11  0.520E-11
 23.529  0.306E-11  0.306E-11
 23.539  0.180E-11  0.180E-11
 23.549  0.106E-11  0.106E-11
