# E (eV)   ldos(E)   pdos(E)    pdos(E)    pdos(E)   
 -6.851  0.240E-07  0.804E-08  0.800E-08  0.800E-08
 -6.841  0.391E-07  0.131E-07  0.130E-07  0.130E-07
 -6.831  0.631E-07  0.211E-07  0.210E-07  0.210E-07
 -6.821  0.101E-06  0.337E-07  0.335E-07  0.335E-07
 -6.811  0.159E-06  0.532E-07  0.529E-07  0.529E-07
 -6.801  0.249E-06  0.833E-07  0.829E-07  0.829E-07
 -6.791  0.386E-06  0.129E-06  0.128E-06  0.128E-06
 -6.781  0.593E-06  0.198E-06  0.197E-06  0.197E-06
 -6.771  0.901E-06  0.301E-06  0.300E-06  0.300E-06
 -6.761  0.136E-05  0.454E-06  0.452E-06  0.452E-06
 -6.751  0.202E-05  0.677E-06  0.674E-06  0.674E-06
 -6.741  0.299E-05  0.100E-05  0.996E-06  0.996E-06
 -6.731  0.438E-05  0.146E-05  0.146E-05  0.146E-05
 -6.721  0.635E-05  0.212E-05  0.211E-05  0.211E-05
 -6.711  0.913E-05  0.305E-05  0.304E-05  0.304E-05
 -6.701  0.130E-04  0.434E-05  0.433E-05  0.433E-05
 -6.691  0.183E-04  0.613E-05  0.610E-05  0.610E-05
 -6.681  0.256E-04  0.856E-05  0.853E-05  0.853E-05
 -6.671  0.355E-04  0.119E-04  0.118E-04  0.118E-04
 -6.661  0.487E-04  0.163E-04  0.162E-04  0.162E-04
 -6.651  0.663E-04  0.221E-04  0.221E-04  0.221E-04
 -6.641  0.894E-04  0.299E-04  0.298E-04  0.298E-04
 -6.631  0.119E-03  0.399E-04  0.398E-04  0.398E-04
 -6.621  0.158E-03  0.529E-04  0.527E-04  0.527E-04
 -6.611  0.208E-03  0.695E-04  0.693E-04  0.693E-04
 -6.601  0.271E-03  0.906E-04  0.902E-04  0.902E-04
 -6.591  0.350E-03  0.117E-03  0.117E-03  0.117E-03
 -6.581  0.449E-03  0.150E-03  0.149E-03  0.149E-03
 -6.571  0.570E-03  0.190E-03  0.190E-03  0.190E-03
 -6.561  0.719E-03  0.240E-03  0.239E-03  0.239E-03
 -6.551  0.899E-03  0.300E-03  0.299E-03  0.299E-03
 -6.541  0.112E-02  0.373E-03  0.371E-03  0.371E-03
 -6.531  0.137E-02  0.459E-03  0.457E-03  0.457E-03
 -6.521  0.168E-02  0.561E-03  0.559E-03  0.559E-03
 -6.511  0.204E-02  0.680E-03  0.678E-03  0.678E-03
 -6.501  0.245E-02  0.819E-03  0.816E-03  0.816E-03
 -6.491  0.293E-02  0.980E-03  0.976E-03  0.976E-03
 -6.481  0.348E-02  0.116E-02  0.116E-02  0.116E-02
 -6.471  0.410E-02  0.137E-02  0.137E-02  0.137E-02
 -6.461  0.481E-02  0.161E-02  0.160E-02  0.160E-02
 -6.451  0.560E-02  0.187E-02  0.186E-02  0.186E-02
 -6.441  0.647E-02  0.216E-02  0.215E-02  0.215E-02
 -6.431  0.744E-02  0.249E-02  0.248E-02  0.248E-02
 -6.421  0.851E-02  0.284E-02  0.283E-02  0.283E-02
 -6.411  0.967E-02  0.323E-02  0.322E-02  0.322E-02
 -6.401  0.109E-01  0.365E-02  0.364E-02  0.364E-02
 -6.391  0.123E-01  0.411E-02  0.409E-02  0.409E-02
 -6.381  0.137E-01  0.459E-02  0.457E-02  0.457E-02
 -6.371  0.153E-01  0.511E-02  0.509E-02  0.509E-02
 -6.361  0.169E-01  0.566E-02  0.563E-02  0.563E-02
 -6.351  0.187E-01  0.625E-02  0.621E-02  0.621E-02
 -6.341  0.205E-01  0.686E-02  0.682E-02  0.682E-02
 -6.331  0.224E-01  0.750E-02  0.746E-02  0.746E-02
 -6.321  0.244E-01  0.817E-02  0.812E-02  0.812E-02
 -6.311  0.265E-01  0.887E-02  0.882E-02  0.882E-02
 -6.301  0.287E-01  0.959E-02  0.953E-02  0.953E-02
 -6.291  0.309E-01  0.103E-01  0.103E-01  0.103E-01
 -6.281  0.332E-01  0.111E-01  0.110E-01  0.110E-01
 -6.271  0.356E-01  0.119E-01  0.118E-01  0.118E-01
 -6.261  0.380E-01  0.127E-01  0.126E-01  0.126E-01
 -6.251  0.405E-01  0.136E-01  0.135E-01  0.135E-01
 -6.241  0.431E-01  0.144E-01  0.143E-01  0.143E-01
 -6.231  0.457E-01  0.153E-01  0.152E-01  0.152E-01
 -6.221  0.483E-01  0.162E-01  0.161E-01  0.161E-01
 -6.211  0.511E-01  0.171E-01  0.170E-01  0.170E-01
 -6.201  0.538E-01  0.180E-01  0.179E-01  0.179E-01
 -6.191  0.567E-01  0.190E-01  0.188E-01  0.188E-01
 -6.181  0.596E-01  0.200E-01  0.198E-01  0.198E-01
 -6.171  0.625E-01  0.209E-01  0.208E-01  0.208E-01
 -6.161  0.655E-01  0.220E-01  0.218E-01  0.218E-01
 -6.151  0.686E-01  0.230E-01  0.228E-01  0.228E-01
 -6.141  0.717E-01  0.240E-01  0.238E-01  0.238E-01
 -6.131  0.748E-01  0.251E-01  0.249E-01  0.249E-01
 -6.121  0.781E-01  0.262E-01  0.260E-01  0.260E-01
 -6.111  0.814E-01  0.273E-01  0.271E-01  0.271E-01
 -6.101  0.848E-01  0.284E-01  0.282E-01  0.282E-01
 -6.091  0.882E-01  0.296E-01  0.293E-01  0.293E-01
 -6.081  0.917E-01  0.307E-01  0.305E-01  0.305E-01
 -6.071  0.953E-01  0.320E-01  0.317E-01  0.317E-01
 -6.061  0.990E-01  0.332E-01  0.329E-01  0.329E-01
 -6.051  0.103E+00  0.345E-01  0.342E-01  0.342E-01
 -6.041  0.107E+00  0.358E-01  0.354E-01  0.354E-01
 -6.031  0.111E+00  0.371E-01  0.368E-01  0.368E-01
 -6.021  0.115E+00  0.385E-01  0.381E-01  0.381E-01
 -6.011  0.119E+00  0.399E-01  0.395E-01  0.395E-01
 -6.001  0.123E+00  0.413E-01  0.410E-01  0.410E-01
 -5.991  0.128E+00  0.428E-01  0.424E-01  0.424E-01
 -5.981  0.132E+00  0.444E-01  0.440E-01  0.440E-01
 -5.971  0.137E+00  0.460E-01  0.456E-01  0.456E-01
 -5.961  0.142E+00  0.476E-01  0.472E-01  0.472E-01
 -5.951  0.147E+00  0.494E-01  0.489E-01  0.489E-01
 -5.941  0.153E+00  0.512E-01  0.507E-01  0.507E-01
 -5.931  0.158E+00  0.530E-01  0.526E-01  0.526E-01
 -5.921  0.164E+00  0.550E-01  0.545E-01  0.545E-01
 -5.911  0.170E+00  0.571E-01  0.566E-01  0.566E-01
 -5.901  0.177E+00  0.592E-01  0.587E-01  0.587E-01
 -5.891  0.183E+00  0.615E-01  0.610E-01  0.610E-01
 -5.881  0.191E+00  0.639E-01  0.634E-01  0.634E-01
 -5.871  0.198E+00  0.664E-01  0.659E-01  0.659E-01
 -5.861  0.206E+00  0.691E-01  0.686E-01  0.686E-01
 -5.851  0.215E+00  0.720E-01  0.714E-01  0.714E-01
 -5.841  0.224E+00  0.750E-01  0.745E-01  0.745E-01
 -5.831  0.234E+00  0.782E-01  0.777E-01  0.777E-01
 -5.821  0.244E+00  0.817E-01  0.812E-01  0.812E-01
 -5.811  0.255E+00  0.854E-01  0.849E-01  0.849E-01
 -5.801  0.267E+00  0.894E-01  0.889E-01  0.889E-01
 -5.791  0.280E+00  0.936E-01  0.931E-01  0.931E-01
 -5.781  0.294E+00  0.982E-01  0.977E-01  0.977E-01
 -5.771  0.308E+00  0.103E+00  0.103E+00  0.103E+00
 -5.761  0.324E+00  0.108E+00  0.108E+00  0.108E+00
 -5.751  0.340E+00  0.114E+00  0.113E+00  0.113E+00
 -5.741  0.358E+00  0.120E+00  0.119E+00  0.119E+00
 -5.731  0.376E+00  0.126E+00  0.125E+00  0.125E+00
 -5.721  0.396E+00  0.132E+00  0.132E+00  0.132E+00
 -5.711  0.416E+00  0.139E+00  0.139E+00  0.139E+00
 -5.701  0.438E+00  0.146E+00  0.146E+00  0.146E+00
 -5.691  0.460E+00  0.154E+00  0.153E+00  0.153E+00
 -5.681  0.482E+00  0.161E+00  0.161E+00  0.161E+00
 -5.671  0.505E+00  0.169E+00  0.168E+00  0.168E+00
 -5.661  0.528E+00  0.177E+00  0.176E+00  0.176E+00
 -5.651  0.551E+00  0.184E+00  0.183E+00  0.183E+00
 -5.641  0.574E+00  0.192E+00  0.191E+00  0.191E+00
 -5.631  0.596E+00  0.199E+00  0.198E+00  0.198E+00
 -5.621  0.616E+00  0.206E+00  0.205E+00  0.205E+00
 -5.611  0.635E+00  0.212E+00  0.211E+00  0.211E+00
 -5.601  0.652E+00  0.218E+00  0.217E+00  0.217E+00
 -5.591  0.666E+00  0.222E+00  0.222E+00  0.222E+00
 -5.581  0.677E+00  0.226E+00  0.226E+00  0.226E+00
 -5.571  0.686E+00  0.229E+00  0.229E+00  0.229E+00
 -5.561  0.690E+00  0.230E+00  0.230E+00  0.230E+00
 -5.551  0.691E+00  0.230E+00  0.231E+00  0.231E+00
 -5.541  0.687E+00  0.228E+00  0.229E+00  0.229E+00
 -5.531  0.680E+00  0.225E+00  0.227E+00  0.227E+00
 -5.521  0.667E+00  0.221E+00  0.223E+00  0.223E+00
 -5.511  0.651E+00  0.215E+00  0.218E+00  0.218E+00
 -5.501  0.631E+00  0.208E+00  0.211E+00  0.211E+00
 -5.491  0.606E+00  0.200E+00  0.203E+00  0.203E+00
 -5.481  0.579E+00  0.190E+00  0.194E+00  0.194E+00
 -5.471  0.548E+00  0.180E+00  0.184E+00  0.184E+00
 -5.461  0.515E+00  0.169E+00  0.173E+00  0.173E+00
 -5.451  0.479E+00  0.157E+00  0.161E+00  0.161E+00
 -5.441  0.443E+00  0.144E+00  0.149E+00  0.149E+00
 -5.431  0.406E+00  0.132E+00  0.137E+00  0.137E+00
 -5.421  0.369E+00  0.120E+00  0.124E+00  0.124E+00
 -5.411  0.332E+00  0.107E+00  0.112E+00  0.112E+00
 -5.401  0.296E+00  0.956E-01  0.100E+00  0.100E+00
 -5.391  0.262E+00  0.844E-01  0.887E-01  0.887E-01
 -5.381  0.229E+00  0.737E-01  0.778E-01  0.778E-01
 -5.371  0.199E+00  0.638E-01  0.676E-01  0.676E-01
 -5.361  0.171E+00  0.548E-01  0.582E-01  0.582E-01
 -5.351  0.146E+00  0.465E-01  0.496E-01  0.496E-01
 -5.341  0.123E+00  0.392E-01  0.419E-01  0.419E-01
 -5.331  0.103E+00  0.327E-01  0.350E-01  0.350E-01
 -5.321  0.850E-01  0.270E-01  0.290E-01  0.290E-01
 -5.311  0.696E-01  0.220E-01  0.238E-01  0.238E-01
 -5.301  0.565E-01  0.178E-01  0.193E-01  0.193E-01
 -5.291  0.454E-01  0.143E-01  0.155E-01  0.155E-01
 -5.281  0.361E-01  0.114E-01  0.124E-01  0.124E-01
 -5.271  0.284E-01  0.892E-02  0.976E-02  0.976E-02
 -5.261  0.222E-01  0.694E-02  0.761E-02  0.761E-02
 -5.251  0.171E-01  0.534E-02  0.588E-02  0.588E-02
 -5.241  0.131E-01  0.407E-02  0.450E-02  0.450E-02
 -5.231  0.989E-02  0.308E-02  0.341E-02  0.341E-02
 -5.221  0.740E-02  0.230E-02  0.255E-02  0.255E-02
 -5.211  0.548E-02  0.170E-02  0.189E-02  0.189E-02
 -5.201  0.402E-02  0.124E-02  0.139E-02  0.139E-02
 -5.191  0.292E-02  0.901E-03  0.101E-02  0.101E-02
 -5.181  0.210E-02  0.646E-03  0.726E-03  0.726E-03
 -5.171  0.149E-02  0.459E-03  0.516E-03  0.516E-03
 -5.161  0.105E-02  0.322E-03  0.364E-03  0.364E-03
 -5.151  0.731E-03  0.224E-03  0.254E-03  0.254E-03
 -5.141  0.504E-03  0.154E-03  0.175E-03  0.175E-03
 -5.131  0.344E-03  0.105E-03  0.119E-03  0.119E-03
 -5.121  0.232E-03  0.707E-04  0.806E-04  0.806E-04
 -5.111  0.155E-03  0.471E-04  0.539E-04  0.539E-04
 -5.101  0.102E-03  0.311E-04  0.357E-04  0.357E-04
 -5.091  0.670E-04  0.203E-04  0.233E-04  0.233E-04
 -5.081  0.434E-04  0.131E-04  0.151E-04  0.151E-04
 -5.071  0.278E-04  0.840E-05  0.969E-05  0.969E-05
 -5.061  0.176E-04  0.531E-05  0.615E-05  0.615E-05
 -5.051  0.110E-04  0.333E-05  0.386E-05  0.386E-05
 -5.041  0.685E-05  0.206E-05  0.240E-05  0.240E-05
 -5.031  0.421E-05  0.126E-05  0.147E-05  0.147E-05
 -5.021  0.256E-05  0.767E-06  0.895E-06  0.895E-06
 -5.011  0.154E-05  0.460E-06  0.538E-06  0.538E-06
 -5.001  0.914E-06  0.273E-06  0.320E-06  0.320E-06
 -4.991  0.538E-06  0.161E-06  0.189E-06  0.189E-06
 -4.981  0.313E-06  0.935E-07  0.110E-06  0.110E-06
 -4.971  0.181E-06  0.538E-07  0.634E-07  0.634E-07
 -4.961  0.103E-06  0.306E-07  0.362E-07  0.362E-07
 -4.951  0.581E-07  0.173E-07  0.204E-07  0.204E-07
 -4.941  0.324E-07  0.962E-08  0.114E-07  0.114E-07
 -4.931  0.179E-07  0.531E-08  0.630E-08  0.630E-08
 -4.921  0.979E-08  0.290E-08  0.345E-08  0.345E-08
 -4.911  0.529E-08  0.156E-08  0.186E-08  0.186E-08
 -4.901  0.283E-08  0.836E-09  0.998E-09  0.998E-09
 -4.891  0.150E-08  0.442E-09  0.528E-09  0.528E-09
 -4.881  0.784E-09  0.231E-09  0.277E-09  0.277E-09
 -4.871  0.406E-09  0.119E-09  0.143E-09  0.143E-09
 -4.861  0.208E-09  0.611E-10  0.735E-10  0.735E-10
 -4.851  0.105E-09  0.309E-10  0.373E-10  0.373E-10
 -4.841  0.528E-10  0.155E-10  0.187E-10  0.187E-10
 -4.831  0.261E-10  0.763E-11  0.924E-11  0.924E-11
 -4.821  0.127E-10  0.370E-11  0.449E-11  0.449E-11
 -4.811  0.605E-11  0.175E-11  0.215E-11  0.215E-11
 -4.801  0.272E-11  0.775E-12  0.975E-12  0.975E-12
 -4.791  0.107E-11  0.294E-12  0.387E-12  0.387E-12
 -4.781  0.113E-12  0.266E-13  0.430E-13  0.430E-13
 -4.771  0.441E-13  0.942E-14  0.174E-13  0.174E-13
 -4.761  0.109E-12  0.286E-13  0.403E-13  0.403E-13
 -4.751  0.241E-12  0.660E-13  0.873E-13  0.873E-13
 -4.741  0.505E-12  0.142E-12  0.181E-12  0.181E-12
 -4.731  0.103E-11  0.295E-12  0.370E-12  0.370E-12
 -4.721  0.208E-11  0.601E-12  0.740E-12  0.740E-12
 -4.711  0.412E-11  0.120E-11  0.146E-11  0.146E-11
 -4.701  0.805E-11  0.237E-11  0.284E-11  0.284E-11
 -4.691  0.156E-10  0.462E-11  0.547E-11  0.547E-11
 -4.681  0.298E-10  0.892E-11  0.104E-10  0.104E-10
 -4.671  0.563E-10  0.170E-10  0.197E-10  0.197E-10
 -4.661  0.106E-09  0.322E-10  0.367E-10  0.367E-10
 -4.651  0.196E-09  0.602E-10  0.678E-10  0.678E-10
 -4.641  0.359E-09  0.111E-09  0.124E-09  0.124E-09
 -4.631  0.653E-09  0.204E-09  0.224E-09  0.224E-09
 -4.621  0.117E-08  0.370E-09  0.402E-09  0.402E-09
 -4.611  0.209E-08  0.664E-09  0.714E-09  0.714E-09
 -4.601  0.369E-08  0.118E-08  0.125E-08  0.125E-08
 -4.591  0.643E-08  0.207E-08  0.218E-08  0.218E-08
 -4.581  0.111E-07  0.361E-08  0.376E-08  0.376E-08
 -4.571  0.190E-07  0.621E-08  0.640E-08  0.640E-08
 -4.561  0.322E-07  0.106E-07  0.108E-07  0.108E-07
 -4.551  0.540E-07  0.179E-07  0.181E-07  0.181E-07
 -4.541  0.896E-07  0.298E-07  0.299E-07  0.299E-07
 -4.531  0.147E-06  0.493E-07  0.490E-07  0.490E-07
 -4.521  0.239E-06  0.806E-07  0.794E-07  0.794E-07
 -4.511  0.386E-06  0.130E-06  0.128E-06  0.128E-06
 -4.501  0.615E-06  0.209E-06  0.203E-06  0.203E-06
 -4.491  0.971E-06  0.332E-06  0.320E-06  0.320E-06
 -4.481  0.152E-05  0.521E-06  0.498E-06  0.498E-06
 -4.471  0.235E-05  0.810E-06  0.770E-06  0.770E-06
 -4.461  0.360E-05  0.125E-05  0.118E-05  0.118E-05
 -4.451  0.546E-05  0.190E-05  0.178E-05  0.178E-05
 -4.441  0.821E-05  0.286E-05  0.267E-05  0.267E-05
 -4.431  0.122E-04  0.427E-05  0.397E-05  0.397E-05
 -4.421  0.180E-04  0.631E-05  0.585E-05  0.585E-05
 -4.411  0.263E-04  0.923E-05  0.852E-05  0.852E-05
 -4.401  0.380E-04  0.134E-04  0.123E-04  0.123E-04
 -4.391  0.543E-04  0.192E-04  0.176E-04  0.176E-04
 -4.381  0.770E-04  0.272E-04  0.249E-04  0.249E-04
 -4.371  0.108E-03  0.382E-04  0.349E-04  0.349E-04
 -4.361  0.150E-03  0.532E-04  0.485E-04  0.485E-04
 -4.351  0.207E-03  0.733E-04  0.668E-04  0.668E-04
 -4.341  0.282E-03  0.100E-03  0.911E-04  0.911E-04
 -4.331  0.381E-03  0.135E-03  0.123E-03  0.123E-03
 -4.321  0.510E-03  0.181E-03  0.165E-03  0.165E-03
 -4.311  0.677E-03  0.239E-03  0.219E-03  0.219E-03
 -4.301  0.889E-03  0.314E-03  0.287E-03  0.287E-03
 -4.291  0.116E-02  0.409E-03  0.374E-03  0.374E-03
 -4.281  0.149E-02  0.526E-03  0.483E-03  0.483E-03
 -4.271  0.191E-02  0.672E-03  0.619E-03  0.619E-03
 -4.261  0.242E-02  0.849E-03  0.785E-03  0.785E-03
 -4.251  0.304E-02  0.106E-02  0.986E-03  0.986E-03
 -4.241  0.378E-02  0.132E-02  0.123E-02  0.123E-02
 -4.231  0.467E-02  0.163E-02  0.152E-02  0.152E-02
 -4.221  0.571E-02  0.199E-02  0.186E-02  0.186E-02
 -4.211  0.693E-02  0.240E-02  0.226E-02  0.226E-02
 -4.201  0.834E-02  0.288E-02  0.273E-02  0.273E-02
 -4.191  0.995E-02  0.343E-02  0.326E-02  0.326E-02
 -4.181  0.118E-01  0.406E-02  0.386E-02  0.386E-02
 -4.171  0.138E-01  0.475E-02  0.454E-02  0.454E-02
 -4.161  0.161E-01  0.553E-02  0.530E-02  0.530E-02
 -4.151  0.187E-01  0.639E-02  0.614E-02  0.614E-02
 -4.141  0.214E-01  0.733E-02  0.706E-02  0.706E-02
 -4.131  0.245E-01  0.835E-02  0.806E-02  0.806E-02
 -4.121  0.277E-01  0.945E-02  0.912E-02  0.912E-02
 -4.111  0.312E-01  0.106E-01  0.103E-01  0.103E-01
 -4.101  0.348E-01  0.119E-01  0.115E-01  0.115E-01
 -4.091  0.386E-01  0.132E-01  0.127E-01  0.127E-01
 -4.081  0.426E-01  0.146E-01  0.140E-01  0.140E-01
 -4.071  0.467E-01  0.161E-01  0.153E-01  0.153E-01
 -4.061  0.508E-01  0.176E-01  0.166E-01  0.166E-01
 -4.051  0.551E-01  0.191E-01  0.180E-01  0.180E-01
 -4.041  0.593E-01  0.207E-01  0.193E-01  0.193E-01
 -4.031  0.634E-01  0.222E-01  0.206E-01  0.206E-01
 -4.021  0.675E-01  0.238E-01  0.218E-01  0.218E-01
 -4.011  0.714E-01  0.254E-01  0.230E-01  0.230E-01
 -4.001  0.751E-01  0.269E-01  0.241E-01  0.241E-01
 -3.991  0.786E-01  0.283E-01  0.251E-01  0.251E-01
 -3.981  0.817E-01  0.297E-01  0.260E-01  0.260E-01
 -3.971  0.845E-01  0.309E-01  0.268E-01  0.268E-01
 -3.961  0.870E-01  0.320E-01  0.275E-01  0.275E-01
 -3.951  0.889E-01  0.330E-01  0.280E-01  0.280E-01
 -3.941  0.905E-01  0.338E-01  0.283E-01  0.283E-01
 -3.931  0.915E-01  0.344E-01  0.286E-01  0.286E-01
 -3.921  0.920E-01  0.348E-01  0.286E-01  0.286E-01
 -3.911  0.920E-01  0.349E-01  0.286E-01  0.286E-01
 -3.901  0.915E-01  0.348E-01  0.283E-01  0.283E-01
 -3.891  0.905E-01  0.346E-01  0.280E-01  0.280E-01
 -3.881  0.891E-01  0.340E-01  0.275E-01  0.275E-01
 -3.871  0.872E-01  0.333E-01  0.269E-01  0.269E-01
 -3.861  0.849E-01  0.324E-01  0.262E-01  0.262E-01
 -3.851  0.823E-01  0.314E-01  0.254E-01  0.254E-01
 -3.841  0.794E-01  0.301E-01  0.246E-01  0.246E-01
 -3.831  0.762E-01  0.288E-01  0.237E-01  0.237E-01
 -3.821  0.730E-01  0.274E-01  0.228E-01  0.228E-01
 -3.811  0.696E-01  0.260E-01  0.218E-01  0.218E-01
 -3.801  0.663E-01  0.245E-01  0.209E-01  0.209E-01
 -3.791  0.629E-01  0.231E-01  0.199E-01  0.199E-01
 -3.781  0.597E-01  0.216E-01  0.190E-01  0.190E-01
 -3.771  0.566E-01  0.203E-01  0.182E-01  0.182E-01
 -3.761  0.538E-01  0.190E-01  0.174E-01  0.174E-01
 -3.751  0.511E-01  0.178E-01  0.166E-01  0.166E-01
 -3.741  0.487E-01  0.168E-01  0.160E-01  0.160E-01
 -3.731  0.466E-01  0.158E-01  0.154E-01  0.154E-01
 -3.721  0.447E-01  0.150E-01  0.148E-01  0.148E-01
 -3.711  0.431E-01  0.143E-01  0.144E-01  0.144E-01
 -3.701  0.418E-01  0.137E-01  0.140E-01  0.140E-01
 -3.691  0.408E-01  0.133E-01  0.138E-01  0.138E-01
 -3.681  0.400E-01  0.129E-01  0.135E-01  0.135E-01
 -3.671  0.394E-01  0.126E-01  0.134E-01  0.134E-01
 -3.661  0.391E-01  0.125E-01  0.133E-01  0.133E-01
 -3.651  0.389E-01  0.124E-01  0.133E-01  0.133E-01
 -3.641  0.389E-01  0.123E-01  0.133E-01  0.133E-01
 -3.631  0.391E-01  0.124E-01  0.134E-01  0.134E-01
 -3.621  0.394E-01  0.125E-01  0.135E-01  0.135E-01
 -3.611  0.398E-01  0.126E-01  0.136E-01  0.136E-01
 -3.601  0.403E-01  0.127E-01  0.138E-01  0.138E-01
 -3.591  0.408E-01  0.129E-01  0.140E-01  0.140E-01
 -3.581  0.414E-01  0.131E-01  0.142E-01  0.142E-01
 -3.571  0.421E-01  0.134E-01  0.144E-01  0.144E-01
 -3.561  0.428E-01  0.136E-01  0.146E-01  0.146E-01
 -3.551  0.436E-01  0.139E-01  0.148E-01  0.148E-01
 -3.541  0.444E-01  0.142E-01  0.151E-01  0.151E-01
 -3.531  0.452E-01  0.145E-01  0.154E-01  0.154E-01
 -3.521  0.460E-01  0.147E-01  0.156E-01  0.156E-01
 -3.511  0.468E-01  0.150E-01  0.159E-01  0.159E-01
 -3.501  0.477E-01  0.153E-01  0.162E-01  0.162E-01
 -3.491  0.486E-01  0.156E-01  0.165E-01  0.165E-01
 -3.481  0.494E-01  0.159E-01  0.168E-01  0.168E-01
 -3.471  0.503E-01  0.162E-01  0.171E-01  0.171E-01
 -3.461  0.512E-01  0.165E-01  0.173E-01  0.173E-01
 -3.451  0.521E-01  0.168E-01  0.176E-01  0.176E-01
 -3.441  0.529E-01  0.171E-01  0.179E-01  0.179E-01
 -3.431  0.538E-01  0.173E-01  0.182E-01  0.182E-01
 -3.421  0.546E-01  0.176E-01  0.185E-01  0.185E-01
 -3.411  0.554E-01  0.179E-01  0.188E-01  0.188E-01
 -3.401  0.562E-01  0.181E-01  0.190E-01  0.190E-01
 -3.391  0.570E-01  0.184E-01  0.193E-01  0.193E-01
 -3.381  0.578E-01  0.187E-01  0.196E-01  0.196E-01
 -3.371  0.585E-01  0.189E-01  0.198E-01  0.198E-01
 -3.361  0.593E-01  0.192E-01  0.201E-01  0.201E-01
 -3.351  0.600E-01  0.194E-01  0.203E-01  0.203E-01
 -3.341  0.607E-01  0.197E-01  0.205E-01  0.205E-01
 -3.331  0.615E-01  0.200E-01  0.208E-01  0.208E-01
 -3.321  0.622E-01  0.202E-01  0.210E-01  0.210E-01
 -3.311  0.630E-01  0.205E-01  0.212E-01  0.212E-01
 -3.301  0.638E-01  0.208E-01  0.215E-01  0.215E-01
 -3.291  0.646E-01  0.211E-01  0.218E-01  0.218E-01
 -3.281  0.654E-01  0.214E-01  0.220E-01  0.220E-01
 -3.271  0.663E-01  0.217E-01  0.223E-01  0.223E-01
 -3.261  0.672E-01  0.220E-01  0.226E-01  0.226E-01
 -3.251  0.681E-01  0.223E-01  0.229E-01  0.229E-01
 -3.241  0.691E-01  0.226E-01  0.232E-01  0.232E-01
 -3.231  0.700E-01  0.229E-01  0.235E-01  0.235E-01
 -3.221  0.710E-01  0.232E-01  0.239E-01  0.239E-01
 -3.211  0.719E-01  0.235E-01  0.242E-01  0.242E-01
 -3.201  0.729E-01  0.238E-01  0.245E-01  0.245E-01
 -3.191  0.738E-01  0.241E-01  0.248E-01  0.248E-01
 -3.181  0.747E-01  0.244E-01  0.251E-01  0.251E-01
 -3.171  0.755E-01  0.247E-01  0.254E-01  0.254E-01
 -3.161  0.764E-01  0.249E-01  0.257E-01  0.257E-01
 -3.151  0.772E-01  0.252E-01  0.260E-01  0.260E-01
 -3.141  0.779E-01  0.254E-01  0.263E-01  0.263E-01
 -3.131  0.787E-01  0.257E-01  0.265E-01  0.265E-01
 -3.121  0.794E-01  0.259E-01  0.267E-01  0.267E-01
 -3.111  0.802E-01  0.262E-01  0.270E-01  0.270E-01
 -3.101  0.809E-01  0.265E-01  0.272E-01  0.272E-01
 -3.091  0.817E-01  0.267E-01  0.275E-01  0.275E-01
 -3.081  0.824E-01  0.270E-01  0.277E-01  0.277E-01
 -3.071  0.833E-01  0.273E-01  0.280E-01  0.280E-01
 -3.061  0.841E-01  0.277E-01  0.282E-01  0.282E-01
 -3.051  0.850E-01  0.280E-01  0.285E-01  0.285E-01
 -3.041  0.860E-01  0.283E-01  0.288E-01  0.288E-01
 -3.031  0.869E-01  0.287E-01  0.291E-01  0.291E-01
 -3.021  0.880E-01  0.290E-01  0.295E-01  0.295E-01
 -3.011  0.891E-01  0.294E-01  0.298E-01  0.298E-01
 -3.001  0.902E-01  0.297E-01  0.302E-01  0.302E-01
 -2.991  0.913E-01  0.301E-01  0.306E-01  0.306E-01
 -2.981  0.925E-01  0.305E-01  0.310E-01  0.310E-01
 -2.971  0.937E-01  0.308E-01  0.315E-01  0.315E-01
 -2.961  0.949E-01  0.312E-01  0.319E-01  0.319E-01
 -2.951  0.961E-01  0.315E-01  0.323E-01  0.323E-01
 -2.941  0.974E-01  0.319E-01  0.327E-01  0.327E-01
 -2.931  0.986E-01  0.322E-01  0.332E-01  0.332E-01
 -2.921  0.998E-01  0.326E-01  0.336E-01  0.336E-01
 -2.911  0.101E+00  0.330E-01  0.340E-01  0.340E-01
 -2.901  0.102E+00  0.333E-01  0.344E-01  0.344E-01
 -2.891  0.103E+00  0.337E-01  0.348E-01  0.348E-01
 -2.881  0.105E+00  0.341E-01  0.353E-01  0.353E-01
 -2.871  0.106E+00  0.345E-01  0.357E-01  0.357E-01
 -2.861  0.107E+00  0.349E-01  0.361E-01  0.361E-01
 -2.851  0.108E+00  0.353E-01  0.365E-01  0.365E-01
 -2.841  0.110E+00  0.358E-01  0.369E-01  0.369E-01
 -2.831  0.111E+00  0.362E-01  0.374E-01  0.374E-01
 -2.821  0.112E+00  0.367E-01  0.379E-01  0.379E-01
 -2.811  0.114E+00  0.372E-01  0.384E-01  0.384E-01
 -2.801  0.115E+00  0.377E-01  0.389E-01  0.389E-01
 -2.791  0.117E+00  0.382E-01  0.395E-01  0.395E-01
 -2.781  0.119E+00  0.388E-01  0.400E-01  0.400E-01
 -2.771  0.121E+00  0.393E-01  0.407E-01  0.407E-01
 -2.761  0.123E+00  0.399E-01  0.413E-01  0.413E-01
 -2.751  0.125E+00  0.405E-01  0.420E-01  0.420E-01
 -2.741  0.127E+00  0.411E-01  0.427E-01  0.427E-01
 -2.731  0.129E+00  0.418E-01  0.435E-01  0.435E-01
 -2.721  0.131E+00  0.425E-01  0.442E-01  0.442E-01
 -2.711  0.133E+00  0.432E-01  0.449E-01  0.449E-01
 -2.701  0.135E+00  0.439E-01  0.457E-01  0.457E-01
 -2.691  0.137E+00  0.446E-01  0.464E-01  0.464E-01
 -2.681  0.140E+00  0.454E-01  0.471E-01  0.471E-01
 -2.671  0.142E+00  0.461E-01  0.478E-01  0.478E-01
 -2.661  0.144E+00  0.469E-01  0.484E-01  0.484E-01
 -2.651  0.146E+00  0.477E-01  0.490E-01  0.490E-01
 -2.641  0.148E+00  0.485E-01  0.495E-01  0.495E-01
 -2.631  0.149E+00  0.493E-01  0.500E-01  0.500E-01
 -2.621  0.151E+00  0.501E-01  0.504E-01  0.504E-01
 -2.611  0.152E+00  0.509E-01  0.508E-01  0.508E-01
 -2.601  0.154E+00  0.516E-01  0.512E-01  0.512E-01
 -2.591  0.155E+00  0.524E-01  0.515E-01  0.515E-01
 -2.581  0.157E+00  0.531E-01  0.518E-01  0.518E-01
 -2.571  0.158E+00  0.538E-01  0.520E-01  0.520E-01
 -2.561  0.159E+00  0.545E-01  0.522E-01  0.522E-01
 -2.551  0.160E+00  0.552E-01  0.525E-01  0.525E-01
 -2.541  0.161E+00  0.559E-01  0.527E-01  0.527E-01
 -2.531  0.162E+00  0.565E-01  0.529E-01  0.529E-01
 -2.521  0.163E+00  0.571E-01  0.531E-01  0.531E-01
 -2.511  0.164E+00  0.576E-01  0.533E-01  0.533E-01
 -2.501  0.165E+00  0.581E-01  0.535E-01  0.535E-01
 -2.491  0.166E+00  0.586E-01  0.537E-01  0.537E-01
 -2.481  0.167E+00  0.591E-01  0.539E-01  0.539E-01
 -2.471  0.168E+00  0.595E-01  0.541E-01  0.541E-01
 -2.461  0.169E+00  0.599E-01  0.543E-01  0.543E-01
 -2.451  0.169E+00  0.603E-01  0.545E-01  0.545E-01
 -2.441  0.170E+00  0.606E-01  0.547E-01  0.547E-01
 -2.431  0.171E+00  0.609E-01  0.549E-01  0.549E-01
 -2.421  0.171E+00  0.611E-01  0.551E-01  0.551E-01
 -2.411  0.172E+00  0.614E-01  0.553E-01  0.553E-01
 -2.401  0.173E+00  0.616E-01  0.555E-01  0.555E-01
 -2.391  0.173E+00  0.618E-01  0.557E-01  0.557E-01
 -2.381  0.174E+00  0.620E-01  0.559E-01  0.559E-01
 -2.371  0.175E+00  0.622E-01  0.562E-01  0.562E-01
 -2.361  0.175E+00  0.624E-01  0.565E-01  0.565E-01
 -2.351  0.176E+00  0.626E-01  0.568E-01  0.568E-01
 -2.341  0.177E+00  0.628E-01  0.572E-01  0.572E-01
 -2.331  0.178E+00  0.630E-01  0.576E-01  0.576E-01
 -2.321  0.179E+00  0.632E-01  0.581E-01  0.581E-01
 -2.311  0.181E+00  0.634E-01  0.586E-01  0.586E-01
 -2.301  0.182E+00  0.636E-01  0.591E-01  0.591E-01
 -2.291  0.183E+00  0.638E-01  0.597E-01  0.597E-01
 -2.281  0.185E+00  0.641E-01  0.604E-01  0.604E-01
 -2.271  0.186E+00  0.643E-01  0.610E-01  0.610E-01
 -2.261  0.188E+00  0.645E-01  0.618E-01  0.618E-01
 -2.251  0.190E+00  0.648E-01  0.626E-01  0.626E-01
 -2.241  0.192E+00  0.650E-01  0.634E-01  0.634E-01
 -2.231  0.194E+00  0.652E-01  0.642E-01  0.642E-01
 -2.221  0.196E+00  0.654E-01  0.651E-01  0.651E-01
 -2.211  0.198E+00  0.656E-01  0.660E-01  0.660E-01
 -2.201  0.199E+00  0.657E-01  0.669E-01  0.669E-01
 -2.191  0.201E+00  0.659E-01  0.678E-01  0.678E-01
 -2.181  0.203E+00  0.660E-01  0.686E-01  0.686E-01
 -2.171  0.205E+00  0.660E-01  0.694E-01  0.694E-01
 -2.161  0.206E+00  0.659E-01  0.702E-01  0.702E-01
 -2.151  0.208E+00  0.658E-01  0.709E-01  0.709E-01
 -2.141  0.208E+00  0.656E-01  0.714E-01  0.714E-01
 -2.131  0.209E+00  0.653E-01  0.719E-01  0.719E-01
 -2.121  0.209E+00  0.649E-01  0.722E-01  0.722E-01
 -2.111  0.209E+00  0.643E-01  0.723E-01  0.723E-01
 -2.101  0.208E+00  0.636E-01  0.722E-01  0.722E-01
 -2.091  0.207E+00  0.628E-01  0.719E-01  0.719E-01
 -2.081  0.205E+00  0.618E-01  0.714E-01  0.714E-01
 -2.071  0.202E+00  0.606E-01  0.706E-01  0.706E-01
 -2.061  0.198E+00  0.593E-01  0.696E-01  0.696E-01
 -2.051  0.194E+00  0.578E-01  0.683E-01  0.683E-01
 -2.041  0.190E+00  0.561E-01  0.667E-01  0.667E-01
 -2.031  0.184E+00  0.543E-01  0.649E-01  0.649E-01
 -2.021  0.178E+00  0.523E-01  0.628E-01  0.628E-01
 -2.011  0.171E+00  0.502E-01  0.606E-01  0.606E-01
 -2.001  0.164E+00  0.479E-01  0.581E-01  0.581E-01
 -1.991  0.156E+00  0.456E-01  0.554E-01  0.554E-01
 -1.981  0.148E+00  0.431E-01  0.525E-01  0.525E-01
 -1.971  0.140E+00  0.405E-01  0.495E-01  0.495E-01
 -1.961  0.131E+00  0.379E-01  0.464E-01  0.464E-01
 -1.951  0.122E+00  0.353E-01  0.433E-01  0.433E-01
 -1.941  0.113E+00  0.327E-01  0.401E-01  0.401E-01
 -1.931  0.104E+00  0.301E-01  0.369E-01  0.369E-01
 -1.921  0.951E-01  0.275E-01  0.338E-01  0.338E-01
 -1.911  0.864E-01  0.250E-01  0.307E-01  0.307E-01
 -1.901  0.780E-01  0.225E-01  0.277E-01  0.277E-01
 -1.891  0.700E-01  0.202E-01  0.249E-01  0.249E-01
 -1.881  0.624E-01  0.180E-01  0.222E-01  0.222E-01
 -1.871  0.552E-01  0.160E-01  0.196E-01  0.196E-01
 -1.861  0.485E-01  0.140E-01  0.172E-01  0.172E-01
 -1.851  0.423E-01  0.122E-01  0.150E-01  0.150E-01
 -1.841  0.366E-01  0.106E-01  0.130E-01  0.130E-01
 -1.831  0.315E-01  0.912E-02  0.112E-01  0.112E-01
 -1.821  0.269E-01  0.778E-02  0.954E-02  0.954E-02
 -1.811  0.227E-01  0.659E-02  0.808E-02  0.808E-02
 -1.801  0.191E-01  0.554E-02  0.679E-02  0.679E-02
 -1.791  0.159E-01  0.462E-02  0.566E-02  0.566E-02
 -1.781  0.132E-01  0.382E-02  0.468E-02  0.468E-02
 -1.771  0.108E-01  0.314E-02  0.384E-02  0.384E-02
 -1.761  0.880E-02  0.256E-02  0.312E-02  0.312E-02
 -1.751  0.710E-02  0.206E-02  0.252E-02  0.252E-02
 -1.741  0.568E-02  0.165E-02  0.202E-02  0.202E-02
 -1.731  0.451E-02  0.131E-02  0.160E-02  0.160E-02
 -1.721  0.355E-02  0.103E-02  0.126E-02  0.126E-02
 -1.711  0.277E-02  0.806E-03  0.981E-03  0.981E-03
 -1.701  0.214E-02  0.623E-03  0.759E-03  0.759E-03
 -1.691  0.164E-02  0.478E-03  0.582E-03  0.582E-03
 -1.681  0.125E-02  0.363E-03  0.442E-03  0.442E-03
 -1.671  0.939E-03  0.274E-03  0.333E-03  0.333E-03
 -1.661  0.701E-03  0.204E-03  0.248E-03  0.248E-03
 -1.651  0.518E-03  0.151E-03  0.184E-03  0.184E-03
 -1.641  0.380E-03  0.111E-03  0.134E-03  0.134E-03
 -1.631  0.276E-03  0.804E-04  0.976E-04  0.976E-04
 -1.621  0.198E-03  0.578E-04  0.702E-04  0.702E-04
 -1.611  0.141E-03  0.412E-04  0.500E-04  0.500E-04
 -1.601  0.997E-04  0.291E-04  0.353E-04  0.353E-04
 -1.591  0.697E-04  0.203E-04  0.247E-04  0.247E-04
 -1.581  0.483E-04  0.141E-04  0.171E-04  0.171E-04
 -1.571  0.331E-04  0.967E-05  0.117E-04  0.117E-04
 -1.561  0.225E-04  0.657E-05  0.797E-05  0.797E-05
 -1.551  0.151E-04  0.442E-05  0.536E-05  0.536E-05
 -1.541  0.101E-04  0.295E-05  0.357E-05  0.357E-05
 -1.531  0.666E-05  0.194E-05  0.236E-05  0.236E-05
 -1.521  0.435E-05  0.127E-05  0.154E-05  0.154E-05
 -1.511  0.282E-05  0.822E-06  0.997E-06  0.997E-06
 -1.501  0.180E-05  0.527E-06  0.639E-06  0.639E-06
 -1.491  0.114E-05  0.334E-06  0.405E-06  0.405E-06
 -1.481  0.719E-06  0.210E-06  0.255E-06  0.255E-06
 -1.471  0.447E-06  0.131E-06  0.158E-06  0.158E-06
 -1.461  0.275E-06  0.804E-07  0.974E-07  0.974E-07
 -1.451  0.168E-06  0.490E-07  0.594E-07  0.594E-07
 -1.441  0.101E-06  0.296E-07  0.358E-07  0.358E-07
 -1.431  0.605E-07  0.177E-07  0.214E-07  0.214E-07
 -1.421  0.357E-07  0.104E-07  0.127E-07  0.127E-07
 -1.411  0.209E-07  0.611E-08  0.741E-08  0.741E-08
 -1.401  0.121E-07  0.354E-08  0.429E-08  0.429E-08
 -1.391  0.695E-08  0.203E-08  0.246E-08  0.246E-08
 -1.381  0.395E-08  0.115E-08  0.140E-08  0.140E-08
 -1.371  0.222E-08  0.648E-09  0.785E-09  0.785E-09
 -1.361  0.123E-08  0.360E-09  0.437E-09  0.437E-09
 -1.351  0.679E-09  0.198E-09  0.240E-09  0.240E-09
 -1.341  0.370E-09  0.108E-09  0.131E-09  0.131E-09
 -1.331  0.199E-09  0.582E-10  0.706E-10  0.706E-10
 -1.321  0.106E-09  0.311E-10  0.377E-10  0.377E-10
 -1.311  0.562E-10  0.164E-10  0.199E-10  0.199E-10
 -1.301  0.293E-10  0.857E-11  0.104E-10  0.104E-10
 -1.291  0.152E-10  0.443E-11  0.537E-11  0.537E-11
 -1.281  0.774E-11  0.226E-11  0.274E-11  0.274E-11
 -1.271  0.391E-11  0.114E-11  0.138E-11  0.138E-11
 -1.261  0.195E-11  0.570E-12  0.690E-12  0.690E-12
 -1.251  0.943E-12  0.276E-12  0.334E-12  0.334E-12
 -1.241  0.457E-12  0.134E-12  0.162E-12  0.162E-12
 -1.231  0.213E-12  0.626E-13  0.754E-13  0.754E-13
 -1.221  0.921E-13  0.266E-13  0.328E-13  0.328E-13
 -1.211  0.323E-13  0.941E-14  0.114E-13  0.114E-13
 -1.201  0.108E-13  0.308E-14  0.387E-14  0.387E-14
 -1.191  0.266E-14  0.851E-15  0.906E-15  0.906E-15
 -1.181  0.000E+00  0.000E+00  0.000E+00  0.000E+00
 -1.171  0.000E+00  0.000E+00  0.000E+00  0.000E+00
 -1.161  0.000E+00  0.000E+00  0.000E+00  0.000E+00
 -1.151  0.000E+00  0.000E+00  0.000E+00  0.000E+00
 -1.141  0.000E+00  0.000E+00  0.000E+00  0.000E+00
 -1.131  0.000E+00  0.000E+00  0.000E+00  0.000E+00
 -1.121  0.000E+00  0.000E+00  0.000E+00  0.000E+00
 -1.111  0.000E+00  0.000E+00  0.000E+00  0.000E+00
 -1.101  0.000E+00  0.000E+00  0.000E+00  0.000E+00
 -1.091  0.000E+00  0.000E+00  0.000E+00  0.000E+00
 -1.081  0.000E+00  0.000E+00  0.000E+00  0.000E+00
 -1.071  0.000E+00  0.000E+00  0.000E+00  0.000E+00
 -1.061  0.000E+00  0.000E+00  0.000E+00  0.000E+00
 -1.051  0.000E+00  0.000E+00  0.000E+00  0.000E+00
 -1.041  0.000E+00  0.000E+00  0.000E+00  0.000E+00
 -1.031  0.000E+00  0.000E+00  0.000E+00  0.000E+00
 -1.021  0.000E+00  0.000E+00  0.000E+00  0.000E+00
 -1.011  0.000E+00  0.000E+00  0.000E+00  0.000E+00
 -1.001  0.000E+00  0.000E+00  0.000E+00  0.000E+00
 -0.991  0.000E+00  0.000E+00  0.000E+00  0.000E+00
 -0.981  0.000E+00  0.000E+00  0.000E+00  0.000E+00
 -0.971  0.000E+00  0.000E+00  0.000E+00  0.000E+00
 -0.961  0.000E+00  0.000E+00  0.000E+00  0.000E+00
 -0.951  0.000E+00  0.000E+00  0.000E+00  0.000E+00
 -0.941  0.000E+00  0.000E+00  0.000E+00  0.000E+00
 -0.931  0.000E+00  0.000E+00  0.000E+00  0.000E+00
 -0.921  0.000E+00  0.000E+00  0.000E+00  0.000E+00
 -0.911  0.000E+00  0.000E+00  0.000E+00  0.000E+00
 -0.901  0.000E+00  0.000E+00  0.000E+00  0.000E+00
 -0.891  0.000E+00  0.000E+00  0.000E+00  0.000E+00
 -0.881  0.000E+00  0.000E+00  0.000E+00  0.000E+00
 -0.871  0.000E+00  0.000E+00  0.000E+00  0.000E+00
 -0.861  0.000E+00  0.000E+00  0.000E+00  0.000E+00
 -0.851  0.000E+00  0.000E+00  0.000E+00  0.000E+00
 -0.841  0.000E+00  0.000E+00  0.000E+00  0.000E+00
 -0.831  0.000E+00  0.000E+00  0.000E+00  0.000E+00
 -0.821  0.000E+00  0.000E+00  0.000E+00  0.000E+00
 -0.811  0.000E+00  0.000E+00  0.000E+00  0.000E+00
 -0.801  0.000E+00  0.000E+00  0.000E+00  0.000E+00
 -0.791  0.000E+00  0.000E+00  0.000E+00  0.000E+00
 -0.781  0.000E+00  0.000E+00  0.000E+00  0.000E+00
 -0.771  0.000E+00  0.000E+00  0.000E+00  0.000E+00
 -0.761  0.000E+00  0.000E+00  0.000E+00  0.000E+00
 -0.751  0.000E+00  0.000E+00  0.000E+00  0.000E+00
 -0.741  0.000E+00  0.000E+00  0.000E+00  0.000E+00
 -0.731  0.000E+00  0.000E+00  0.000E+00  0.000E+00
 -0.721  0.000E+00  0.000E+00  0.000E+00  0.000E+00
 -0.711  0.000E+00  0.000E+00  0.000E+00  0.000E+00
 -0.701  0.000E+00  0.000E+00  0.000E+00  0.000E+00
 -0.691  0.000E+00  0.000E+00  0.000E+00  0.000E+00
 -0.681  0.000E+00  0.000E+00  0.000E+00  0.000E+00
 -0.671  0.000E+00  0.000E+00  0.000E+00  0.000E+00
 -0.661  0.000E+00  0.000E+00  0.000E+00  0.000E+00
 -0.651  0.000E+00  0.000E+00  0.000E+00  0.000E+00
 -0.641  0.000E+00  0.000E+00  0.000E+00  0.000E+00
 -0.631  0.000E+00  0.000E+00  0.000E+00  0.000E+00
 -0.621  0.000E+00  0.000E+00  0.000E+00  0.000E+00
 -0.611  0.000E+00  0.000E+00  0.000E+00  0.000E+00
 -0.601  0.000E+00  0.000E+00  0.000E+00  0.000E+00
 -0.591  0.000E+00  0.000E+00  0.000E+00  0.000E+00
 -0.581  0.000E+00  0.000E+00  0.000E+00  0.000E+00
 -0.571  0.000E+00  0.000E+00  0.000E+00  0.000E+00
 -0.561  0.000E+00  0.000E+00  0.000E+00  0.000E+00
 -0.551  0.000E+00  0.000E+00  0.000E+00  0.000E+00
 -0.541  0.000E+00  0.000E+00  0.000E+00  0.000E+00
 -0.531  0.000E+00  0.000E+00  0.000E+00  0.000E+00
 -0.521  0.000E+00  0.000E+00  0.000E+00  0.000E+00
 -0.511  0.000E+00  0.000E+00  0.000E+00  0.000E+00
 -0.501  0.000E+00  0.000E+00  0.000E+00  0.000E+00
 -0.491  0.000E+00  0.000E+00  0.000E+00  0.000E+00
 -0.481  0.000E+00  0.000E+00  0.000E+00  0.000E+00
 -0.471  0.000E+00  0.000E+00  0.000E+00  0.000E+00
 -0.461  0.000E+00  0.000E+00  0.000E+00  0.000E+00
 -0.451  0.000E+00  0.000E+00  0.000E+00  0.000E+00
 -0.441  0.000E+00  0.000E+00  0.000E+00  0.000E+00
 -0.431  0.000E+00  0.000E+00  0.000E+00  0.000E+00
 -0.421  0.000E+00  0.000E+00  0.000E+00  0.000E+00
 -0.411  0.000E+00  0.000E+00  0.000E+00  0.000E+00
 -0.401  0.000E+00  0.000E+00  0.000E+00  0.000E+00
 -0.391  0.000E+00  0.000E+00  0.000E+00  0.000E+00
 -0.381  0.000E+00  0.000E+00  0.000E+00  0.000E+00
 -0.371  0.000E+00  0.000E+00  0.000E+00  0.000E+00
 -0.361  0.000E+00  0.000E+00  0.000E+00  0.000E+00
 -0.351  0.000E+00  0.000E+00  0.000E+00  0.000E+00
 -0.341  0.000E+00  0.000E+00  0.000E+00  0.000E+00
 -0.331  0.000E+00  0.000E+00  0.000E+00  0.000E+00
 -0.321  0.000E+00  0.000E+00  0.000E+00  0.000E+00
 -0.311  0.000E+00  0.000E+00  0.000E+00  0.000E+00
 -0.301  0.000E+00  0.000E+00  0.000E+00  0.000E+00
 -0.291  0.000E+00  0.000E+00  0.000E+00  0.000E+00
 -0.281  0.000E+00  0.000E+00  0.000E+00  0.000E+00
 -0.271  0.000E+00  0.000E+00  0.000E+00  0.000E+00
 -0.261  0.000E+00  0.000E+00  0.000E+00  0.000E+00
 -0.251  0.000E+00  0.000E+00  0.000E+00  0.000E+00
 -0.241  0.000E+00  0.000E+00  0.000E+00  0.000E+00
 -0.231  0.000E+00  0.000E+00  0.000E+00  0.000E+00
 -0.221  0.000E+00  0.000E+00  0.000E+00  0.000E+00
 -0.211  0.000E+00  0.000E+00  0.000E+00  0.000E+00
 -0.201  0.000E+00  0.000E+00  0.000E+00  0.000E+00
 -0.191  0.000E+00  0.000E+00  0.000E+00  0.000E+00
 -0.181  0.000E+00  0.000E+00  0.000E+00  0.000E+00
 -0.171  0.000E+00  0.000E+00  0.000E+00  0.000E+00
 -0.161  0.000E+00  0.000E+00  0.000E+00  0.000E+00
 -0.151  0.000E+00  0.000E+00  0.000E+00  0.000E+00
 -0.141  0.000E+00  0.000E+00  0.000E+00  0.000E+00
 -0.131  0.000E+00  0.000E+00  0.000E+00  0.000E+00
 -0.121  0.000E+00  0.000E+00  0.000E+00  0.000E+00
 -0.111  0.000E+00  0.000E+00  0.000E+00  0.000E+00
 -0.101  0.000E+00  0.000E+00  0.000E+00  0.000E+00
 -0.091  0.000E+00  0.000E+00  0.000E+00  0.000E+00
 -0.081  0.000E+00  0.000E+00  0.000E+00  0.000E+00
 -0.071  0.000E+00  0.000E+00  0.000E+00  0.000E+00
 -0.061  0.000E+00  0.000E+00  0.000E+00  0.000E+00
 -0.051  0.000E+00  0.000E+00  0.000E+00  0.000E+00
 -0.041  0.000E+00  0.000E+00  0.000E+00  0.000E+00
 -0.031  0.000E+00  0.000E+00  0.000E+00  0.000E+00
 -0.021  0.000E+00  0.000E+00  0.000E+00  0.000E+00
 -0.011  0.000E+00  0.000E+00  0.000E+00  0.000E+00
 -0.001  0.000E+00  0.000E+00  0.000E+00  0.000E+00
  0.009  0.000E+00  0.000E+00  0.000E+00  0.000E+00
  0.019  0.000E+00  0.000E+00  0.000E+00  0.000E+00
  0.029  0.000E+00  0.000E+00  0.000E+00  0.000E+00
  0.039  0.000E+00  0.000E+00  0.000E+00  0.000E+00
  0.049  0.000E+00  0.000E+00  0.000E+00  0.000E+00
  0.059  0.000E+00  0.000E+00  0.000E+00  0.000E+00
  0.069  0.000E+00  0.000E+00  0.000E+00  0.000E+00
  0.079  0.000E+00  0.000E+00  0.000E+00  0.000E+00
  0.089  0.000E+00  0.000E+00  0.000E+00  0.000E+00
  0.099  0.000E+00  0.000E+00  0.000E+00  0.000E+00
  0.109  0.000E+00  0.000E+00  0.000E+00  0.000E+00
  0.119  0.000E+00  0.000E+00  0.000E+00  0.000E+00
  0.129  0.000E+00  0.000E+00  0.000E+00  0.000E+00
  0.139  0.000E+00  0.000E+00  0.000E+00  0.000E+00
  0.149  0.000E+00  0.000E+00  0.000E+00  0.000E+00
  0.159  0.000E+00  0.000E+00  0.000E+00  0.000E+00
  0.169  0.000E+00  0.000E+00  0.000E+00  0.000E+00
  0.179  0.000E+00  0.000E+00  0.000E+00  0.000E+00
  0.189  0.000E+00  0.000E+00  0.000E+00  0.000E+00
  0.199  0.000E+00  0.000E+00  0.000E+00  0.000E+00
  0.209  0.000E+00  0.000E+00  0.000E+00  0.000E+00
  0.219  0.000E+00  0.000E+00  0.000E+00  0.000E+00
  0.229  0.000E+00  0.000E+00  0.000E+00  0.000E+00
  0.239  0.000E+00  0.000E+00  0.000E+00  0.000E+00
  0.249  0.000E+00  0.000E+00  0.000E+00  0.000E+00
  0.259  0.000E+00  0.000E+00  0.000E+00  0.000E+00
  0.269  0.000E+00  0.000E+00  0.000E+00  0.000E+00
  0.279  0.000E+00  0.000E+00  0.000E+00  0.000E+00
  0.289  0.000E+00  0.000E+00  0.000E+00  0.000E+00
  0.299  0.000E+00  0.000E+00  0.000E+00  0.000E+00
  0.309  0.000E+00  0.000E+00  0.000E+00  0.000E+00
  0.319  0.000E+00  0.000E+00  0.000E+00  0.000E+00
  0.329  0.000E+00  0.000E+00  0.000E+00  0.000E+00
  0.339  0.000E+00  0.000E+00  0.000E+00  0.000E+00
  0.349  0.000E+00  0.000E+00  0.000E+00  0.000E+00
  0.359  0.000E+00  0.000E+00  0.000E+00  0.000E+00
  0.369  0.000E+00  0.000E+00  0.000E+00  0.000E+00
  0.379  0.000E+00  0.000E+00  0.000E+00  0.000E+00
  0.389  0.000E+00  0.000E+00  0.000E+00  0.000E+00
  0.399  0.000E+00  0.000E+00  0.000E+00  0.000E+00
  0.409  0.000E+00  0.000E+00  0.000E+00  0.000E+00
  0.419  0.000E+00  0.000E+00  0.000E+00  0.000E+00
  0.429  0.000E+00  0.000E+00  0.000E+00  0.000E+00
  0.439  0.000E+00  0.000E+00  0.000E+00  0.000E+00
  0.449  0.000E+00  0.000E+00  0.000E+00  0.000E+00
  0.459  0.000E+00  0.000E+00  0.000E+00  0.000E+00
  0.469  0.000E+00  0.000E+00  0.000E+00  0.000E+00
  0.479  0.000E+00  0.000E+00  0.000E+00  0.000E+00
  0.489  0.000E+00  0.000E+00  0.000E+00  0.000E+00
  0.499  0.000E+00  0.000E+00  0.000E+00  0.000E+00
  0.509  0.000E+00  0.000E+00  0.000E+00  0.000E+00
  0.519  0.000E+00  0.000E+00  0.000E+00  0.000E+00
  0.529  0.000E+00  0.000E+00  0.000E+00  0.000E+00
  0.539  0.000E+00  0.000E+00  0.000E+00  0.000E+00
  0.549  0.000E+00  0.000E+00  0.000E+00  0.000E+00
  0.559  0.000E+00  0.000E+00  0.000E+00  0.000E+00
  0.569  0.000E+00  0.000E+00  0.000E+00  0.000E+00
  0.579  0.000E+00  0.000E+00  0.000E+00  0.000E+00
  0.589  0.000E+00  0.000E+00  0.000E+00  0.000E+00
  0.599  0.000E+00  0.000E+00  0.000E+00  0.000E+00
  0.609  0.000E+00  0.000E+00  0.000E+00  0.000E+00
  0.619  0.000E+00  0.000E+00  0.000E+00  0.000E+00
  0.629  0.000E+00  0.000E+00  0.000E+00  0.000E+00
  0.639  0.000E+00  0.000E+00  0.000E+00  0.000E+00
  0.649  0.000E+00  0.000E+00  0.000E+00  0.000E+00
  0.659  0.000E+00  0.000E+00  0.000E+00  0.000E+00
  0.669  0.000E+00  0.000E+00  0.000E+00  0.000E+00
  0.679  0.000E+00  0.000E+00  0.000E+00  0.000E+00
  0.689  0.000E+00  0.000E+00  0.000E+00  0.000E+00
  0.699  0.000E+00  0.000E+00  0.000E+00  0.000E+00
  0.709  0.000E+00  0.000E+00  0.000E+00  0.000E+00
  0.719  0.000E+00  0.000E+00  0.000E+00  0.000E+00
  0.729  0.000E+00  0.000E+00  0.000E+00  0.000E+00
  0.739  0.000E+00  0.000E+00  0.000E+00  0.000E+00
  0.749  0.000E+00  0.000E+00  0.000E+00  0.000E+00
  0.759  0.000E+00  0.000E+00  0.000E+00  0.000E+00
  0.769  0.000E+00  0.000E+00  0.000E+00  0.000E+00
  0.779  0.000E+00  0.000E+00  0.000E+00  0.000E+00
  0.789  0.000E+00  0.000E+00  0.000E+00  0.000E+00
  0.799  0.000E+00  0.000E+00  0.000E+00  0.000E+00
  0.809  0.000E+00  0.000E+00  0.000E+00  0.000E+00
  0.819  0.000E+00  0.000E+00  0.000E+00  0.000E+00
  0.829  0.000E+00  0.000E+00  0.000E+00  0.000E+00
  0.839  0.000E+00  0.000E+00  0.000E+00  0.000E+00
  0.849  0.000E+00  0.000E+00  0.000E+00  0.000E+00
  0.859  0.000E+00  0.000E+00  0.000E+00  0.000E+00
  0.869  0.000E+00  0.000E+00  0.000E+00  0.000E+00
  0.879  0.000E+00  0.000E+00  0.000E+00  0.000E+00
  0.889  0.000E+00  0.000E+00  0.000E+00  0.000E+00
  0.899  0.000E+00  0.000E+00  0.000E+00  0.000E+00
  0.909  0.000E+00  0.000E+00  0.000E+00  0.000E+00
  0.919  0.000E+00  0.000E+00  0.000E+00  0.000E+00
  0.929  0.000E+00  0.000E+00  0.000E+00  0.000E+00
  0.939  0.000E+00  0.000E+00  0.000E+00  0.000E+00
  0.949  0.000E+00  0.000E+00  0.000E+00  0.000E+00
  0.959  0.000E+00  0.000E+00  0.000E+00  0.000E+00
  0.969  0.000E+00  0.000E+00  0.000E+00  0.000E+00
  0.979  0.000E+00  0.000E+00  0.000E+00  0.000E+00
  0.989  0.000E+00  0.000E+00  0.000E+00  0.000E+00
  0.999  0.000E+00  0.000E+00  0.000E+00  0.000E+00
  1.009  0.000E+00  0.000E+00  0.000E+00  0.000E+00
  1.019  0.000E+00  0.000E+00  0.000E+00  0.000E+00
  1.029  0.000E+00  0.000E+00  0.000E+00  0.000E+00
  1.039  0.000E+00  0.000E+00  0.000E+00  0.000E+00
  1.049  0.000E+00  0.000E+00  0.000E+00  0.000E+00
  1.059  0.000E+00  0.000E+00  0.000E+00  0.000E+00
  1.069  0.000E+00  0.000E+00  0.000E+00  0.000E+00
  1.079  0.000E+00  0.000E+00  0.000E+00  0.000E+00
  1.089  0.000E+00  0.000E+00  0.000E+00  0.000E+00
  1.099  0.000E+00  0.000E+00  0.000E+00  0.000E+00
  1.109  0.000E+00  0.000E+00  0.000E+00  0.000E+00
  1.119  0.000E+00  0.000E+00  0.000E+00  0.000E+00
  1.129  0.000E+00  0.000E+00  0.000E+00  0.000E+00
  1.139  0.000E+00  0.000E+00  0.000E+00  0.000E+00
  1.149  0.000E+00  0.000E+00  0.000E+00  0.000E+00
  1.159  0.000E+00  0.000E+00  0.000E+00  0.000E+00
  1.169  0.000E+00  0.000E+00  0.000E+00  0.000E+00
  1.179  0.000E+00  0.000E+00  0.000E+00  0.000E+00
  1.189  0.000E+00  0.000E+00  0.000E+00  0.000E+00
  1.199  0.000E+00  0.000E+00  0.000E+00  0.000E+00
  1.209  0.000E+00  0.000E+00  0.000E+00  0.000E+00
  1.219  0.000E+00  0.000E+00  0.000E+00  0.000E+00
  1.229  0.000E+00  0.000E+00  0.000E+00  0.000E+00
  1.239  0.000E+00  0.000E+00  0.000E+00  0.000E+00
  1.249  0.000E+00  0.000E+00  0.000E+00  0.000E+00
  1.259  0.000E+00  0.000E+00  0.000E+00  0.000E+00
  1.269  0.000E+00  0.000E+00  0.000E+00  0.000E+00
  1.279  0.000E+00  0.000E+00  0.000E+00  0.000E+00
  1.289  0.000E+00  0.000E+00  0.000E+00  0.000E+00
  1.299  0.000E+00  0.000E+00  0.000E+00  0.000E+00
  1.309  0.000E+00  0.000E+00  0.000E+00  0.000E+00
  1.319  0.000E+00  0.000E+00  0.000E+00  0.000E+00
  1.329  0.000E+00  0.000E+00  0.000E+00  0.000E+00
  1.339  0.000E+00  0.000E+00  0.000E+00  0.000E+00
  1.349  0.000E+00  0.000E+00  0.000E+00  0.000E+00
  1.359  0.000E+00  0.000E+00  0.000E+00  0.000E+00
  1.369  0.000E+00  0.000E+00  0.000E+00  0.000E+00
  1.379  0.000E+00  0.000E+00  0.000E+00  0.000E+00
  1.389  0.000E+00  0.000E+00  0.000E+00  0.000E+00
  1.399  0.000E+00  0.000E+00  0.000E+00  0.000E+00
  1.409  0.000E+00  0.000E+00  0.000E+00  0.000E+00
  1.419  0.000E+00  0.000E+00  0.000E+00  0.000E+00
  1.429  0.000E+00  0.000E+00  0.000E+00  0.000E+00
  1.439  0.000E+00  0.000E+00  0.000E+00  0.000E+00
  1.449  0.000E+00  0.000E+00  0.000E+00  0.000E+00
  1.459  0.000E+00  0.000E+00  0.000E+00  0.000E+00
  1.469  0.000E+00  0.000E+00  0.000E+00  0.000E+00
  1.479  0.000E+00  0.000E+00  0.000E+00  0.000E+00
  1.489  0.000E+00  0.000E+00  0.000E+00  0.000E+00
  1.499  0.000E+00  0.000E+00  0.000E+00  0.000E+00
  1.509  0.000E+00  0.000E+00  0.000E+00  0.000E+00
  1.519  0.000E+00  0.000E+00  0.000E+00  0.000E+00
  1.529  0.000E+00  0.000E+00  0.000E+00  0.000E+00
  1.539  0.000E+00  0.000E+00  0.000E+00  0.000E+00
  1.549  0.000E+00  0.000E+00  0.000E+00  0.000E+00
  1.559  0.000E+00  0.000E+00  0.000E+00  0.000E+00
  1.569  0.000E+00  0.000E+00  0.000E+00  0.000E+00
  1.579  0.000E+00  0.000E+00  0.000E+00  0.000E+00
  1.589  0.000E+00  0.000E+00  0.000E+00  0.000E+00
  1.599  0.000E+00  0.000E+00  0.000E+00  0.000E+00
  1.609  0.000E+00  0.000E+00  0.000E+00  0.000E+00
  1.619  0.000E+00  0.000E+00  0.000E+00  0.000E+00
  1.629  0.000E+00  0.000E+00  0.000E+00  0.000E+00
  1.639  0.000E+00  0.000E+00  0.000E+00  0.000E+00
  1.649  0.000E+00  0.000E+00  0.000E+00  0.000E+00
  1.659  0.000E+00  0.000E+00  0.000E+00  0.000E+00
  1.669  0.000E+00  0.000E+00  0.000E+00  0.000E+00
  1.679  0.000E+00  0.000E+00  0.000E+00  0.000E+00
  1.689  0.000E+00  0.000E+00  0.000E+00  0.000E+00
  1.699  0.000E+00  0.000E+00  0.000E+00  0.000E+00
  1.709  0.000E+00  0.000E+00  0.000E+00  0.000E+00
  1.719  0.000E+00  0.000E+00  0.000E+00  0.000E+00
  1.729  0.000E+00  0.000E+00  0.000E+00  0.000E+00
  1.739  0.000E+00  0.000E+00  0.000E+00  0.000E+00
  1.749  0.155E-14  0.155E-14  0.139E-24  0.139E-24
  1.759  0.322E-14  0.322E-14  0.290E-24  0.290E-24
  1.769  0.665E-14  0.665E-14  0.599E-24  0.599E-24
  1.779  0.218E-13  0.217E-13  0.388E-16  0.388E-16
  1.789  0.446E-13  0.445E-13  0.811E-16  0.811E-16
  1.799  0.903E-13  0.900E-13  0.168E-15  0.168E-15
  1.809  0.181E-12  0.180E-12  0.343E-15  0.343E-15
  1.819  0.358E-12  0.357E-12  0.693E-15  0.693E-15
  1.829  0.703E-12  0.700E-12  0.139E-14  0.139E-14
  1.839  0.137E-11  0.137E-11  0.283E-14  0.283E-14
  1.849  0.264E-11  0.262E-11  0.556E-14  0.556E-14
  1.859  0.501E-11  0.499E-11  0.108E-13  0.108E-13
  1.869  0.943E-11  0.939E-11  0.208E-13  0.208E-13
  1.879  0.176E-10  0.175E-10  0.397E-13  0.397E-13
  1.889  0.324E-10  0.322E-10  0.747E-13  0.747E-13
  1.899  0.591E-10  0.588E-10  0.139E-12  0.139E-12
  1.909  0.107E-09  0.106E-09  0.256E-12  0.256E-12
  1.919  0.190E-09  0.190E-09  0.467E-12  0.467E-12
  1.929  0.337E-09  0.335E-09  0.843E-12  0.843E-12
  1.939  0.589E-09  0.586E-09  0.151E-11  0.151E-11
  1.949  0.102E-08  0.101E-08  0.266E-11  0.266E-11
  1.959  0.175E-08  0.174E-08  0.466E-11  0.466E-11
  1.969  0.296E-08  0.295E-08  0.806E-11  0.806E-11
  1.979  0.497E-08  0.494E-08  0.138E-10  0.138E-10
  1.989  0.826E-08  0.821E-08  0.234E-10  0.234E-10
  1.999  0.136E-07  0.135E-07  0.393E-10  0.393E-10
  2.009  0.221E-07  0.220E-07  0.653E-10  0.653E-10
  2.019  0.356E-07  0.354E-07  0.107E-09  0.107E-09
  2.029  0.567E-07  0.564E-07  0.175E-09  0.175E-09
  2.039  0.896E-07  0.890E-07  0.282E-09  0.282E-09
  2.049  0.140E-06  0.139E-06  0.449E-09  0.449E-09
  2.059  0.216E-06  0.215E-06  0.710E-09  0.710E-09
  2.069  0.331E-06  0.329E-06  0.111E-08  0.111E-08
  2.079  0.502E-06  0.498E-06  0.172E-08  0.172E-08
  2.089  0.753E-06  0.747E-06  0.264E-08  0.264E-08
  2.099  0.112E-05  0.111E-05  0.400E-08  0.400E-08
  2.109  0.164E-05  0.163E-05  0.602E-08  0.602E-08
  2.119  0.239E-05  0.237E-05  0.897E-08  0.897E-08
  2.129  0.345E-05  0.342E-05  0.132E-07  0.132E-07
  2.139  0.492E-05  0.488E-05  0.194E-07  0.194E-07
  2.149  0.696E-05  0.690E-05  0.280E-07  0.280E-07
  2.159  0.974E-05  0.966E-05  0.402E-07  0.402E-07
  2.169  0.135E-04  0.134E-04  0.572E-07  0.572E-07
  2.179  0.185E-04  0.184E-04  0.806E-07  0.806E-07
  2.189  0.252E-04  0.250E-04  0.113E-06  0.113E-06
  2.199  0.340E-04  0.337E-04  0.156E-06  0.156E-06
  2.209  0.454E-04  0.450E-04  0.214E-06  0.214E-06
  2.219  0.601E-04  0.595E-04  0.291E-06  0.291E-06
  2.229  0.787E-04  0.780E-04  0.393E-06  0.393E-06
  2.239  0.102E-03  0.101E-03  0.526E-06  0.526E-06
  2.249  0.132E-03  0.130E-03  0.698E-06  0.698E-06
  2.259  0.168E-03  0.166E-03  0.920E-06  0.920E-06
  2.269  0.213E-03  0.210E-03  0.120E-05  0.120E-05
  2.279  0.267E-03  0.264E-03  0.156E-05  0.156E-05
  2.289  0.333E-03  0.329E-03  0.202E-05  0.202E-05
  2.299  0.411E-03  0.405E-03  0.258E-05  0.258E-05
  2.309  0.503E-03  0.496E-03  0.329E-05  0.329E-05
  2.319  0.611E-03  0.603E-03  0.417E-05  0.417E-05
  2.329  0.737E-03  0.727E-03  0.525E-05  0.525E-05
  2.339  0.882E-03  0.869E-03  0.659E-05  0.659E-05
  2.349  0.105E-02  0.103E-02  0.823E-05  0.823E-05
  2.359  0.124E-02  0.122E-02  0.103E-04  0.103E-04
  2.369  0.145E-02  0.142E-02  0.127E-04  0.127E-04
  2.379  0.169E-02  0.165E-02  0.158E-04  0.158E-04
  2.389  0.195E-02  0.191E-02  0.196E-04  0.196E-04
  2.399  0.224E-02  0.219E-02  0.243E-04  0.243E-04
  2.409  0.256E-02  0.250E-02  0.301E-04  0.301E-04
  2.419  0.290E-02  0.283E-02  0.374E-04  0.374E-04
  2.429  0.328E-02  0.319E-02  0.464E-04  0.464E-04
  2.439  0.368E-02  0.357E-02  0.577E-04  0.577E-04
  2.449  0.411E-02  0.397E-02  0.719E-04  0.719E-04
  2.459  0.457E-02  0.439E-02  0.897E-04  0.897E-04
  2.469  0.506E-02  0.483E-02  0.112E-03  0.112E-03
  2.479  0.557E-02  0.529E-02  0.140E-03  0.140E-03
  2.489  0.611E-02  0.576E-02  0.175E-03  0.175E-03
  2.499  0.668E-02  0.624E-02  0.218E-03  0.218E-03
  2.509  0.727E-02  0.673E-02  0.271E-03  0.271E-03
  2.519  0.790E-02  0.723E-02  0.337E-03  0.337E-03
  2.529  0.856E-02  0.772E-02  0.418E-03  0.418E-03
  2.539  0.924E-02  0.821E-02  0.516E-03  0.516E-03
  2.549  0.997E-02  0.870E-02  0.634E-03  0.634E-03
  2.559  0.107E-01  0.918E-02  0.776E-03  0.776E-03
  2.569  0.115E-01  0.966E-02  0.945E-03  0.945E-03
  2.579  0.124E-01  0.101E-01  0.114E-02  0.114E-02
  2.589  0.133E-01  0.106E-01  0.138E-02  0.138E-02
  2.599  0.143E-01  0.110E-01  0.165E-02  0.165E-02
  2.609  0.154E-01  0.114E-01  0.196E-02  0.196E-02
  2.619  0.165E-01  0.119E-01  0.232E-02  0.232E-02
  2.629  0.177E-01  0.123E-01  0.272E-02  0.272E-02
  2.639  0.190E-01  0.127E-01  0.317E-02  0.317E-02
  2.649  0.204E-01  0.131E-01  0.368E-02  0.368E-02
  2.659  0.219E-01  0.135E-01  0.423E-02  0.423E-02
  2.669  0.236E-01  0.139E-01  0.484E-02  0.484E-02
  2.679  0.253E-01  0.143E-01  0.551E-02  0.551E-02
  2.689  0.271E-01  0.147E-01  0.622E-02  0.622E-02
  2.699  0.291E-01  0.151E-01  0.698E-02  0.698E-02
  2.709  0.312E-01  0.156E-01  0.779E-02  0.779E-02
  2.719  0.333E-01  0.160E-01  0.865E-02  0.865E-02
  2.729  0.356E-01  0.165E-01  0.954E-02  0.954E-02
  2.739  0.379E-01  0.170E-01  0.105E-01  0.105E-01
  2.749  0.404E-01  0.176E-01  0.114E-01  0.114E-01
  2.759  0.429E-01  0.181E-01  0.124E-01  0.124E-01
  2.769  0.454E-01  0.187E-01  0.134E-01  0.134E-01
  2.779  0.481E-01  0.193E-01  0.144E-01  0.144E-01
  2.789  0.507E-01  0.199E-01  0.154E-01  0.154E-01
  2.799  0.534E-01  0.205E-01  0.164E-01  0.164E-01
  2.809  0.560E-01  0.212E-01  0.174E-01  0.174E-01
  2.819  0.587E-01  0.218E-01  0.184E-01  0.184E-01
  2.829  0.614E-01  0.225E-01  0.195E-01  0.195E-01
  2.839  0.641E-01  0.231E-01  0.205E-01  0.205E-01
  2.849  0.667E-01  0.238E-01  0.214E-01  0.214E-01
  2.859  0.693E-01  0.245E-01  0.224E-01  0.224E-01
  2.869  0.719E-01  0.251E-01  0.234E-01  0.234E-01
  2.879  0.744E-01  0.257E-01  0.244E-01  0.244E-01
  2.889  0.769E-01  0.263E-01  0.253E-01  0.253E-01
  2.899  0.794E-01  0.269E-01  0.262E-01  0.262E-01
  2.909  0.818E-01  0.275E-01  0.271E-01  0.271E-01
  2.919  0.841E-01  0.280E-01  0.280E-01  0.280E-01
  2.929  0.864E-01  0.286E-01  0.289E-01  0.289E-01
  2.939  0.885E-01  0.290E-01  0.297E-01  0.297E-01
  2.949  0.906E-01  0.295E-01  0.306E-01  0.306E-01
  2.959  0.926E-01  0.299E-01  0.314E-01  0.314E-01
  2.969  0.946E-01  0.303E-01  0.321E-01  0.321E-01
  2.979  0.964E-01  0.307E-01  0.328E-01  0.328E-01
  2.989  0.981E-01  0.310E-01  0.335E-01  0.335E-01
  2.999  0.997E-01  0.313E-01  0.342E-01  0.342E-01
  3.009  0.101E+00  0.316E-01  0.348E-01  0.348E-01
  3.019  0.103E+00  0.319E-01  0.354E-01  0.354E-01
  3.029  0.104E+00  0.321E-01  0.360E-01  0.360E-01
  3.039  0.105E+00  0.323E-01  0.365E-01  0.365E-01
  3.049  0.107E+00  0.325E-01  0.370E-01  0.370E-01
  3.059  0.108E+00  0.327E-01  0.375E-01  0.375E-01
  3.069  0.109E+00  0.329E-01  0.380E-01  0.380E-01
  3.079  0.110E+00  0.331E-01  0.384E-01  0.384E-01
  3.089  0.111E+00  0.332E-01  0.389E-01  0.389E-01
  3.099  0.112E+00  0.334E-01  0.393E-01  0.393E-01
  3.109  0.113E+00  0.336E-01  0.397E-01  0.397E-01
  3.119  0.114E+00  0.338E-01  0.401E-01  0.401E-01
  3.129  0.115E+00  0.340E-01  0.406E-01  0.406E-01
  3.139  0.116E+00  0.342E-01  0.410E-01  0.410E-01
  3.149  0.117E+00  0.344E-01  0.413E-01  0.413E-01
  3.159  0.118E+00  0.347E-01  0.417E-01  0.417E-01
  3.169  0.119E+00  0.350E-01  0.421E-01  0.421E-01
  3.179  0.120E+00  0.353E-01  0.424E-01  0.424E-01
  3.189  0.121E+00  0.357E-01  0.427E-01  0.427E-01
  3.199  0.122E+00  0.360E-01  0.430E-01  0.430E-01
  3.209  0.123E+00  0.364E-01  0.432E-01  0.432E-01
  3.219  0.124E+00  0.369E-01  0.434E-01  0.434E-01
  3.229  0.124E+00  0.373E-01  0.435E-01  0.435E-01
  3.239  0.125E+00  0.378E-01  0.437E-01  0.437E-01
  3.249  0.126E+00  0.383E-01  0.437E-01  0.437E-01
  3.259  0.126E+00  0.388E-01  0.438E-01  0.438E-01
  3.269  0.127E+00  0.393E-01  0.438E-01  0.438E-01
  3.279  0.127E+00  0.398E-01  0.438E-01  0.438E-01
  3.289  0.128E+00  0.404E-01  0.438E-01  0.438E-01
  3.299  0.128E+00  0.409E-01  0.437E-01  0.437E-01
  3.309  0.129E+00  0.414E-01  0.436E-01  0.436E-01
  3.319  0.129E+00  0.419E-01  0.436E-01  0.436E-01
  3.329  0.129E+00  0.425E-01  0.434E-01  0.434E-01
  3.339  0.130E+00  0.430E-01  0.433E-01  0.433E-01
  3.349  0.130E+00  0.434E-01  0.432E-01  0.432E-01
  3.359  0.130E+00  0.439E-01  0.430E-01  0.430E-01
  3.369  0.130E+00  0.444E-01  0.428E-01  0.428E-01
  3.379  0.130E+00  0.448E-01  0.426E-01  0.426E-01
  3.389  0.130E+00  0.451E-01  0.424E-01  0.424E-01
  3.399  0.130E+00  0.455E-01  0.421E-01  0.421E-01
  3.409  0.129E+00  0.458E-01  0.418E-01  0.418E-01
  3.419  0.129E+00  0.460E-01  0.415E-01  0.415E-01
  3.429  0.129E+00  0.462E-01  0.412E-01  0.412E-01
  3.439  0.128E+00  0.463E-01  0.409E-01  0.409E-01
  3.449  0.127E+00  0.464E-01  0.405E-01  0.405E-01
  3.459  0.127E+00  0.463E-01  0.401E-01  0.401E-01
  3.469  0.126E+00  0.462E-01  0.397E-01  0.397E-01
  3.479  0.125E+00  0.460E-01  0.393E-01  0.393E-01
  3.489  0.124E+00  0.457E-01  0.389E-01  0.389E-01
  3.499  0.122E+00  0.454E-01  0.385E-01  0.385E-01
  3.509  0.121E+00  0.449E-01  0.380E-01  0.380E-01
  3.519  0.119E+00  0.444E-01  0.375E-01  0.375E-01
  3.529  0.118E+00  0.438E-01  0.370E-01  0.370E-01
  3.539  0.116E+00  0.431E-01  0.365E-01  0.365E-01
  3.549  0.114E+00  0.424E-01  0.359E-01  0.359E-01
  3.559  0.112E+00  0.416E-01  0.354E-01  0.354E-01
  3.569  0.110E+00  0.407E-01  0.348E-01  0.348E-01
  3.579  0.108E+00  0.399E-01  0.342E-01  0.342E-01
  3.589  0.106E+00  0.390E-01  0.336E-01  0.336E-01
  3.599  0.104E+00  0.380E-01  0.329E-01  0.329E-01
  3.609  0.102E+00  0.371E-01  0.323E-01  0.323E-01
  3.619  0.994E-01  0.361E-01  0.316E-01  0.316E-01
  3.629  0.971E-01  0.351E-01  0.310E-01  0.310E-01
  3.639  0.948E-01  0.341E-01  0.303E-01  0.303E-01
  3.649  0.925E-01  0.331E-01  0.297E-01  0.297E-01
  3.659  0.902E-01  0.321E-01  0.291E-01  0.291E-01
  3.669  0.880E-01  0.311E-01  0.284E-01  0.284E-01
  3.679  0.858E-01  0.301E-01  0.279E-01  0.279E-01
  3.689  0.837E-01  0.291E-01  0.273E-01  0.273E-01
  3.699  0.817E-01  0.282E-01  0.268E-01  0.268E-01
  3.709  0.797E-01  0.272E-01  0.263E-01  0.263E-01
  3.719  0.778E-01  0.263E-01  0.258E-01  0.258E-01
  3.729  0.761E-01  0.253E-01  0.254E-01  0.254E-01
  3.739  0.744E-01  0.245E-01  0.249E-01  0.249E-01
  3.749  0.728E-01  0.237E-01  0.246E-01  0.246E-01
  3.759  0.713E-01  0.229E-01  0.242E-01  0.242E-01
  3.769  0.699E-01  0.222E-01  0.239E-01  0.239E-01
  3.779  0.686E-01  0.216E-01  0.235E-01  0.235E-01
  3.789  0.675E-01  0.210E-01  0.232E-01  0.232E-01
  3.799  0.665E-01  0.206E-01  0.230E-01  0.230E-01
  3.809  0.657E-01  0.202E-01  0.227E-01  0.227E-01
  3.819  0.650E-01  0.200E-01  0.225E-01  0.225E-01
  3.829  0.644E-01  0.199E-01  0.223E-01  0.223E-01
  3.839  0.641E-01  0.198E-01  0.221E-01  0.221E-01
  3.849  0.639E-01  0.199E-01  0.220E-01  0.220E-01
  3.859  0.638E-01  0.201E-01  0.219E-01  0.219E-01
  3.869  0.640E-01  0.204E-01  0.218E-01  0.218E-01
  3.879  0.643E-01  0.208E-01  0.218E-01  0.218E-01
  3.889  0.648E-01  0.212E-01  0.218E-01  0.218E-01
  3.899  0.655E-01  0.217E-01  0.219E-01  0.219E-01
  3.909  0.663E-01  0.222E-01  0.220E-01  0.220E-01
  3.919  0.672E-01  0.228E-01  0.222E-01  0.222E-01
  3.929  0.682E-01  0.234E-01  0.224E-01  0.224E-01
  3.939  0.692E-01  0.240E-01  0.226E-01  0.226E-01
  3.949  0.703E-01  0.246E-01  0.229E-01  0.229E-01
  3.959  0.714E-01  0.251E-01  0.232E-01  0.232E-01
  3.969  0.725E-01  0.256E-01  0.235E-01  0.235E-01
  3.979  0.735E-01  0.260E-01  0.237E-01  0.237E-01
  3.989  0.744E-01  0.263E-01  0.240E-01  0.240E-01
  3.999  0.751E-01  0.265E-01  0.243E-01  0.243E-01
  4.009  0.758E-01  0.266E-01  0.246E-01  0.246E-01
  4.019  0.762E-01  0.266E-01  0.248E-01  0.248E-01
  4.029  0.765E-01  0.265E-01  0.250E-01  0.250E-01
  4.039  0.766E-01  0.263E-01  0.251E-01  0.251E-01
  4.049  0.765E-01  0.260E-01  0.252E-01  0.252E-01
  4.059  0.762E-01  0.256E-01  0.253E-01  0.253E-01
  4.069  0.758E-01  0.251E-01  0.254E-01  0.254E-01
  4.079  0.752E-01  0.245E-01  0.254E-01  0.254E-01
  4.089  0.745E-01  0.238E-01  0.254E-01  0.254E-01
  4.099  0.737E-01  0.231E-01  0.253E-01  0.253E-01
  4.109  0.728E-01  0.223E-01  0.252E-01  0.252E-01
  4.119  0.718E-01  0.215E-01  0.252E-01  0.252E-01
  4.129  0.709E-01  0.207E-01  0.251E-01  0.251E-01
  4.139  0.699E-01  0.199E-01  0.250E-01  0.250E-01
  4.149  0.689E-01  0.191E-01  0.249E-01  0.249E-01
  4.159  0.679E-01  0.184E-01  0.248E-01  0.248E-01
  4.169  0.670E-01  0.177E-01  0.247E-01  0.247E-01
  4.179  0.662E-01  0.170E-01  0.246E-01  0.246E-01
  4.189  0.654E-01  0.164E-01  0.245E-01  0.245E-01
  4.199  0.647E-01  0.158E-01  0.244E-01  0.244E-01
  4.209  0.640E-01  0.153E-01  0.244E-01  0.244E-01
  4.219  0.634E-01  0.149E-01  0.243E-01  0.243E-01
  4.229  0.629E-01  0.145E-01  0.242E-01  0.242E-01
  4.239  0.625E-01  0.142E-01  0.242E-01  0.242E-01
  4.249  0.621E-01  0.139E-01  0.241E-01  0.241E-01
  4.259  0.618E-01  0.137E-01  0.240E-01  0.240E-01
  4.269  0.616E-01  0.136E-01  0.240E-01  0.240E-01
  4.279  0.615E-01  0.136E-01  0.240E-01  0.240E-01
  4.289  0.615E-01  0.136E-01  0.240E-01  0.240E-01
  4.299  0.617E-01  0.137E-01  0.240E-01  0.240E-01
  4.309  0.620E-01  0.139E-01  0.241E-01  0.241E-01
  4.319  0.624E-01  0.141E-01  0.242E-01  0.242E-01
  4.329  0.630E-01  0.144E-01  0.243E-01  0.243E-01
  4.339  0.638E-01  0.148E-01  0.245E-01  0.245E-01
  4.349  0.648E-01  0.153E-01  0.248E-01  0.248E-01
  4.359  0.659E-01  0.158E-01  0.250E-01  0.250E-01
  4.369  0.672E-01  0.164E-01  0.254E-01  0.254E-01
  4.379  0.686E-01  0.171E-01  0.258E-01  0.258E-01
  4.389  0.702E-01  0.178E-01  0.262E-01  0.262E-01
  4.399  0.720E-01  0.186E-01  0.267E-01  0.267E-01
  4.409  0.738E-01  0.194E-01  0.272E-01  0.272E-01
  4.419  0.756E-01  0.202E-01  0.277E-01  0.277E-01
  4.429  0.775E-01  0.211E-01  0.282E-01  0.282E-01
  4.439  0.794E-01  0.220E-01  0.287E-01  0.287E-01
  4.449  0.811E-01  0.228E-01  0.292E-01  0.292E-01
  4.459  0.828E-01  0.236E-01  0.296E-01  0.296E-01
  4.469  0.844E-01  0.244E-01  0.300E-01  0.300E-01
  4.479  0.857E-01  0.251E-01  0.303E-01  0.303E-01
  4.489  0.869E-01  0.257E-01  0.306E-01  0.306E-01
  4.499  0.878E-01  0.262E-01  0.308E-01  0.308E-01
  4.509  0.885E-01  0.266E-01  0.309E-01  0.309E-01
  4.519  0.889E-01  0.269E-01  0.310E-01  0.310E-01
  4.529  0.891E-01  0.271E-01  0.310E-01  0.310E-01
  4.539  0.891E-01  0.271E-01  0.310E-01  0.310E-01
  4.549  0.888E-01  0.270E-01  0.309E-01  0.309E-01
  4.559  0.883E-01  0.268E-01  0.307E-01  0.307E-01
  4.569  0.877E-01  0.265E-01  0.306E-01  0.306E-01
  4.579  0.869E-01  0.261E-01  0.304E-01  0.304E-01
  4.589  0.860E-01  0.256E-01  0.302E-01  0.302E-01
  4.599  0.850E-01  0.250E-01  0.300E-01  0.300E-01
  4.609  0.840E-01  0.244E-01  0.298E-01  0.298E-01
  4.619  0.830E-01  0.237E-01  0.296E-01  0.296E-01
  4.629  0.820E-01  0.230E-01  0.295E-01  0.295E-01
  4.639  0.811E-01  0.223E-01  0.294E-01  0.294E-01
  4.649  0.803E-01  0.216E-01  0.293E-01  0.293E-01
  4.659  0.795E-01  0.209E-01  0.293E-01  0.293E-01
  4.669  0.789E-01  0.202E-01  0.293E-01  0.293E-01
  4.679  0.784E-01  0.196E-01  0.294E-01  0.294E-01
  4.689  0.780E-01  0.189E-01  0.295E-01  0.295E-01
  4.699  0.777E-01  0.184E-01  0.297E-01  0.297E-01
  4.709  0.776E-01  0.178E-01  0.299E-01  0.299E-01
  4.719  0.775E-01  0.173E-01  0.301E-01  0.301E-01
  4.729  0.775E-01  0.169E-01  0.303E-01  0.303E-01
  4.739  0.776E-01  0.164E-01  0.306E-01  0.306E-01
  4.749  0.777E-01  0.161E-01  0.308E-01  0.308E-01
  4.759  0.779E-01  0.157E-01  0.311E-01  0.311E-01
  4.769  0.781E-01  0.154E-01  0.313E-01  0.313E-01
  4.779  0.783E-01  0.151E-01  0.316E-01  0.316E-01
  4.789  0.785E-01  0.149E-01  0.318E-01  0.318E-01
  4.799  0.787E-01  0.147E-01  0.320E-01  0.320E-01
  4.809  0.790E-01  0.146E-01  0.322E-01  0.322E-01
  4.819  0.792E-01  0.145E-01  0.324E-01  0.324E-01
  4.829  0.794E-01  0.144E-01  0.325E-01  0.325E-01
  4.839  0.797E-01  0.144E-01  0.327E-01  0.327E-01
  4.849  0.800E-01  0.144E-01  0.328E-01  0.328E-01
  4.859  0.802E-01  0.145E-01  0.329E-01  0.329E-01
  4.869  0.805E-01  0.146E-01  0.330E-01  0.330E-01
  4.879  0.809E-01  0.148E-01  0.330E-01  0.330E-01
  4.889  0.812E-01  0.151E-01  0.331E-01  0.331E-01
  4.899  0.817E-01  0.154E-01  0.331E-01  0.331E-01
  4.909  0.821E-01  0.158E-01  0.332E-01  0.332E-01
  4.919  0.827E-01  0.163E-01  0.332E-01  0.332E-01
  4.929  0.832E-01  0.169E-01  0.332E-01  0.332E-01
  4.939  0.839E-01  0.175E-01  0.332E-01  0.332E-01
  4.949  0.846E-01  0.183E-01  0.332E-01  0.332E-01
  4.959  0.855E-01  0.191E-01  0.332E-01  0.332E-01
  4.969  0.864E-01  0.201E-01  0.332E-01  0.332E-01
  4.979  0.875E-01  0.212E-01  0.332E-01  0.332E-01
  4.989  0.888E-01  0.224E-01  0.332E-01  0.332E-01
  4.999  0.902E-01  0.237E-01  0.333E-01  0.333E-01
  5.009  0.918E-01  0.251E-01  0.333E-01  0.333E-01
  5.019  0.937E-01  0.267E-01  0.335E-01  0.335E-01
  5.029  0.958E-01  0.284E-01  0.337E-01  0.337E-01
  5.039  0.982E-01  0.303E-01  0.339E-01  0.339E-01
  5.049  0.101E+00  0.323E-01  0.343E-01  0.343E-01
  5.059  0.104E+00  0.344E-01  0.347E-01  0.347E-01
  5.069  0.107E+00  0.366E-01  0.352E-01  0.352E-01
  5.079  0.110E+00  0.388E-01  0.358E-01  0.358E-01
  5.089  0.114E+00  0.412E-01  0.365E-01  0.365E-01
  5.099  0.118E+00  0.436E-01  0.373E-01  0.373E-01
  5.109  0.122E+00  0.461E-01  0.382E-01  0.382E-01
  5.119  0.127E+00  0.485E-01  0.391E-01  0.391E-01
  5.129  0.131E+00  0.510E-01  0.402E-01  0.402E-01
  5.139  0.136E+00  0.534E-01  0.412E-01  0.412E-01
  5.149  0.140E+00  0.557E-01  0.423E-01  0.423E-01
  5.159  0.145E+00  0.579E-01  0.435E-01  0.435E-01
  5.169  0.149E+00  0.600E-01  0.446E-01  0.446E-01
  5.179  0.153E+00  0.620E-01  0.457E-01  0.457E-01
  5.189  0.157E+00  0.638E-01  0.467E-01  0.467E-01
  5.199  0.161E+00  0.654E-01  0.477E-01  0.477E-01
  5.209  0.164E+00  0.669E-01  0.486E-01  0.486E-01
  5.219  0.167E+00  0.681E-01  0.494E-01  0.494E-01
  5.229  0.169E+00  0.692E-01  0.501E-01  0.501E-01
  5.239  0.171E+00  0.701E-01  0.506E-01  0.506E-01
  5.249  0.173E+00  0.708E-01  0.511E-01  0.511E-01
  5.259  0.174E+00  0.713E-01  0.514E-01  0.514E-01
  5.269  0.175E+00  0.716E-01  0.515E-01  0.515E-01
  5.279  0.175E+00  0.718E-01  0.516E-01  0.516E-01
  5.289  0.175E+00  0.718E-01  0.515E-01  0.515E-01
  5.299  0.174E+00  0.717E-01  0.513E-01  0.513E-01
  5.309  0.173E+00  0.714E-01  0.510E-01  0.510E-01
  5.319  0.172E+00  0.711E-01  0.506E-01  0.506E-01
  5.329  0.171E+00  0.706E-01  0.502E-01  0.502E-01
  5.339  0.169E+00  0.700E-01  0.497E-01  0.497E-01
  5.349  0.168E+00  0.694E-01  0.492E-01  0.492E-01
  5.359  0.166E+00  0.686E-01  0.486E-01  0.486E-01
  5.369  0.164E+00  0.678E-01  0.481E-01  0.481E-01
  5.379  0.162E+00  0.669E-01  0.475E-01  0.475E-01
  5.389  0.160E+00  0.660E-01  0.470E-01  0.470E-01
  5.399  0.158E+00  0.650E-01  0.465E-01  0.465E-01
  5.409  0.156E+00  0.640E-01  0.460E-01  0.460E-01
  5.419  0.154E+00  0.629E-01  0.456E-01  0.456E-01
  5.429  0.152E+00  0.619E-01  0.452E-01  0.452E-01
  5.439  0.150E+00  0.608E-01  0.448E-01  0.448E-01
  5.449  0.149E+00  0.597E-01  0.445E-01  0.445E-01
  5.459  0.147E+00  0.586E-01  0.442E-01  0.442E-01
  5.469  0.145E+00  0.576E-01  0.439E-01  0.439E-01
  5.479  0.144E+00  0.565E-01  0.437E-01  0.437E-01
  5.489  0.143E+00  0.556E-01  0.435E-01  0.435E-01
  5.499  0.141E+00  0.547E-01  0.434E-01  0.434E-01
  5.509  0.140E+00  0.538E-01  0.433E-01  0.433E-01
  5.519  0.140E+00  0.531E-01  0.433E-01  0.433E-01
  5.529  0.139E+00  0.525E-01  0.433E-01  0.433E-01
  5.539  0.139E+00  0.520E-01  0.433E-01  0.433E-01
  5.549  0.138E+00  0.516E-01  0.434E-01  0.434E-01
  5.559  0.138E+00  0.513E-01  0.436E-01  0.436E-01
  5.569  0.139E+00  0.512E-01  0.438E-01  0.438E-01
  5.579  0.139E+00  0.512E-01  0.441E-01  0.441E-01
  5.589  0.140E+00  0.514E-01  0.444E-01  0.444E-01
  5.599  0.141E+00  0.517E-01  0.448E-01  0.448E-01
  5.609  0.142E+00  0.521E-01  0.452E-01  0.452E-01
  5.619  0.144E+00  0.526E-01  0.457E-01  0.457E-01
  5.629  0.146E+00  0.532E-01  0.462E-01  0.462E-01
  5.639  0.148E+00  0.539E-01  0.468E-01  0.468E-01
  5.649  0.149E+00  0.546E-01  0.474E-01  0.474E-01
  5.659  0.152E+00  0.554E-01  0.480E-01  0.480E-01
  5.669  0.154E+00  0.562E-01  0.487E-01  0.487E-01
  5.679  0.156E+00  0.570E-01  0.493E-01  0.493E-01
  5.689  0.158E+00  0.578E-01  0.499E-01  0.499E-01
  5.699  0.160E+00  0.586E-01  0.505E-01  0.505E-01
  5.709  0.161E+00  0.593E-01  0.510E-01  0.510E-01
  5.719  0.163E+00  0.599E-01  0.515E-01  0.515E-01
  5.729  0.164E+00  0.604E-01  0.518E-01  0.518E-01
  5.739  0.165E+00  0.609E-01  0.521E-01  0.521E-01
  5.749  0.166E+00  0.613E-01  0.523E-01  0.523E-01
  5.759  0.166E+00  0.616E-01  0.525E-01  0.525E-01
  5.769  0.167E+00  0.618E-01  0.525E-01  0.525E-01
  5.779  0.167E+00  0.618E-01  0.524E-01  0.524E-01
  5.789  0.166E+00  0.618E-01  0.522E-01  0.522E-01
  5.799  0.166E+00  0.618E-01  0.520E-01  0.520E-01
  5.809  0.165E+00  0.616E-01  0.517E-01  0.517E-01
  5.819  0.164E+00  0.614E-01  0.513E-01  0.513E-01
  5.829  0.163E+00  0.610E-01  0.509E-01  0.509E-01
  5.839  0.162E+00  0.607E-01  0.505E-01  0.505E-01
  5.849  0.160E+00  0.603E-01  0.501E-01  0.501E-01
  5.859  0.159E+00  0.598E-01  0.497E-01  0.497E-01
  5.869  0.158E+00  0.593E-01  0.493E-01  0.493E-01
  5.879  0.157E+00  0.588E-01  0.490E-01  0.490E-01
  5.889  0.156E+00  0.583E-01  0.488E-01  0.488E-01
  5.899  0.155E+00  0.578E-01  0.486E-01  0.486E-01
  5.909  0.154E+00  0.572E-01  0.486E-01  0.486E-01
  5.919  0.154E+00  0.567E-01  0.486E-01  0.486E-01
  5.929  0.154E+00  0.562E-01  0.488E-01  0.488E-01
  5.939  0.154E+00  0.557E-01  0.491E-01  0.491E-01
  5.949  0.154E+00  0.553E-01  0.494E-01  0.494E-01
  5.959  0.155E+00  0.550E-01  0.499E-01  0.499E-01
  5.969  0.155E+00  0.547E-01  0.504E-01  0.504E-01
  5.979  0.156E+00  0.544E-01  0.510E-01  0.510E-01
  5.989  0.158E+00  0.543E-01  0.517E-01  0.517E-01
  5.999  0.159E+00  0.542E-01  0.524E-01  0.524E-01
  6.009  0.161E+00  0.543E-01  0.532E-01  0.532E-01
  6.019  0.162E+00  0.545E-01  0.540E-01  0.540E-01
  6.029  0.164E+00  0.547E-01  0.548E-01  0.548E-01
  6.039  0.166E+00  0.551E-01  0.556E-01  0.556E-01
  6.049  0.168E+00  0.556E-01  0.564E-01  0.564E-01
  6.059  0.171E+00  0.562E-01  0.572E-01  0.572E-01
  6.069  0.173E+00  0.569E-01  0.579E-01  0.579E-01
  6.079  0.175E+00  0.577E-01  0.586E-01  0.586E-01
  6.089  0.177E+00  0.585E-01  0.592E-01  0.592E-01
  6.099  0.179E+00  0.594E-01  0.598E-01  0.598E-01
  6.109  0.181E+00  0.603E-01  0.604E-01  0.604E-01
  6.119  0.183E+00  0.611E-01  0.608E-01  0.608E-01
  6.129  0.184E+00  0.619E-01  0.612E-01  0.612E-01
  6.139  0.186E+00  0.626E-01  0.616E-01  0.616E-01
  6.149  0.187E+00  0.633E-01  0.619E-01  0.619E-01
  6.159  0.188E+00  0.638E-01  0.621E-01  0.621E-01
  6.169  0.189E+00  0.641E-01  0.623E-01  0.623E-01
  6.179  0.189E+00  0.643E-01  0.625E-01  0.625E-01
  6.189  0.190E+00  0.644E-01  0.626E-01  0.626E-01
  6.199  0.190E+00  0.642E-01  0.627E-01  0.627E-01
  6.209  0.189E+00  0.639E-01  0.627E-01  0.627E-01
  6.219  0.189E+00  0.635E-01  0.627E-01  0.627E-01
  6.229  0.188E+00  0.628E-01  0.627E-01  0.627E-01
  6.239  0.188E+00  0.621E-01  0.627E-01  0.627E-01
  6.249  0.187E+00  0.612E-01  0.627E-01  0.627E-01
  6.259  0.186E+00  0.602E-01  0.627E-01  0.627E-01
  6.269  0.184E+00  0.591E-01  0.626E-01  0.626E-01
  6.279  0.183E+00  0.580E-01  0.626E-01  0.626E-01
  6.289  0.182E+00  0.569E-01  0.625E-01  0.625E-01
  6.299  0.181E+00  0.558E-01  0.624E-01  0.624E-01
  6.309  0.179E+00  0.547E-01  0.624E-01  0.624E-01
  6.319  0.178E+00  0.536E-01  0.623E-01  0.623E-01
  6.329  0.177E+00  0.526E-01  0.623E-01  0.623E-01
  6.339  0.176E+00  0.517E-01  0.623E-01  0.623E-01
  6.349  0.175E+00  0.508E-01  0.623E-01  0.623E-01
  6.359  0.175E+00  0.501E-01  0.623E-01  0.623E-01
  6.369  0.174E+00  0.495E-01  0.624E-01  0.624E-01
  6.379  0.174E+00  0.489E-01  0.625E-01  0.625E-01
  6.389  0.174E+00  0.485E-01  0.627E-01  0.627E-01
  6.399  0.174E+00  0.482E-01  0.629E-01  0.629E-01
  6.409  0.174E+00  0.480E-01  0.632E-01  0.632E-01
  6.419  0.175E+00  0.480E-01  0.636E-01  0.636E-01
  6.429  0.176E+00  0.481E-01  0.641E-01  0.641E-01
  6.439  0.177E+00  0.483E-01  0.646E-01  0.646E-01
  6.449  0.179E+00  0.486E-01  0.653E-01  0.653E-01
  6.459  0.181E+00  0.490E-01  0.660E-01  0.660E-01
  6.469  0.183E+00  0.495E-01  0.668E-01  0.668E-01
  6.479  0.186E+00  0.501E-01  0.677E-01  0.677E-01
  6.489  0.188E+00  0.508E-01  0.687E-01  0.687E-01
  6.499  0.191E+00  0.516E-01  0.697E-01  0.697E-01
  6.509  0.194E+00  0.524E-01  0.708E-01  0.708E-01
  6.519  0.197E+00  0.532E-01  0.718E-01  0.718E-01
  6.529  0.200E+00  0.540E-01  0.730E-01  0.730E-01
  6.539  0.203E+00  0.548E-01  0.741E-01  0.741E-01
  6.549  0.206E+00  0.555E-01  0.752E-01  0.752E-01
  6.559  0.209E+00  0.562E-01  0.763E-01  0.763E-01
  6.569  0.211E+00  0.567E-01  0.773E-01  0.773E-01
  6.579  0.214E+00  0.572E-01  0.783E-01  0.783E-01
  6.589  0.216E+00  0.575E-01  0.793E-01  0.793E-01
  6.599  0.218E+00  0.578E-01  0.801E-01  0.801E-01
  6.609  0.220E+00  0.579E-01  0.809E-01  0.809E-01
  6.619  0.221E+00  0.579E-01  0.817E-01  0.817E-01
  6.629  0.222E+00  0.577E-01  0.824E-01  0.824E-01
  6.639  0.223E+00  0.575E-01  0.829E-01  0.829E-01
  6.649  0.224E+00  0.572E-01  0.834E-01  0.834E-01
  6.659  0.225E+00  0.568E-01  0.839E-01  0.839E-01
  6.669  0.225E+00  0.563E-01  0.842E-01  0.842E-01
  6.679  0.225E+00  0.559E-01  0.845E-01  0.845E-01
  6.689  0.225E+00  0.554E-01  0.847E-01  0.847E-01
  6.699  0.225E+00  0.549E-01  0.849E-01  0.849E-01
  6.709  0.224E+00  0.544E-01  0.849E-01  0.849E-01
  6.719  0.224E+00  0.539E-01  0.849E-01  0.849E-01
  6.729  0.223E+00  0.535E-01  0.849E-01  0.849E-01
  6.739  0.223E+00  0.530E-01  0.848E-01  0.848E-01
  6.749  0.222E+00  0.527E-01  0.847E-01  0.847E-01
  6.759  0.221E+00  0.523E-01  0.846E-01  0.846E-01
  6.769  0.221E+00  0.520E-01  0.844E-01  0.844E-01
  6.779  0.220E+00  0.517E-01  0.843E-01  0.843E-01
  6.789  0.220E+00  0.515E-01  0.841E-01  0.841E-01
  6.799  0.219E+00  0.512E-01  0.840E-01  0.840E-01
  6.809  0.219E+00  0.510E-01  0.838E-01  0.838E-01
  6.819  0.218E+00  0.508E-01  0.837E-01  0.837E-01
  6.829  0.218E+00  0.507E-01  0.836E-01  0.836E-01
  6.839  0.218E+00  0.505E-01  0.835E-01  0.835E-01
  6.849  0.217E+00  0.504E-01  0.835E-01  0.835E-01
  6.859  0.217E+00  0.503E-01  0.835E-01  0.835E-01
  6.869  0.217E+00  0.503E-01  0.836E-01  0.836E-01
  6.879  0.218E+00  0.504E-01  0.836E-01  0.836E-01
  6.889  0.218E+00  0.505E-01  0.837E-01  0.837E-01
  6.899  0.218E+00  0.507E-01  0.839E-01  0.839E-01
  6.909  0.219E+00  0.510E-01  0.840E-01  0.840E-01
  6.919  0.220E+00  0.514E-01  0.842E-01  0.842E-01
  6.929  0.221E+00  0.520E-01  0.844E-01  0.844E-01
  6.939  0.222E+00  0.527E-01  0.846E-01  0.846E-01
  6.949  0.223E+00  0.536E-01  0.848E-01  0.848E-01
  6.959  0.225E+00  0.545E-01  0.851E-01  0.851E-01
  6.969  0.226E+00  0.557E-01  0.852E-01  0.852E-01
  6.979  0.228E+00  0.569E-01  0.854E-01  0.854E-01
  6.989  0.229E+00  0.582E-01  0.855E-01  0.855E-01
  6.999  0.231E+00  0.596E-01  0.856E-01  0.856E-01
  7.009  0.232E+00  0.610E-01  0.857E-01  0.857E-01
  7.019  0.234E+00  0.625E-01  0.857E-01  0.857E-01
  7.029  0.235E+00  0.639E-01  0.856E-01  0.856E-01
  7.039  0.236E+00  0.652E-01  0.855E-01  0.855E-01
  7.049  0.237E+00  0.665E-01  0.853E-01  0.853E-01
  7.059  0.238E+00  0.677E-01  0.850E-01  0.850E-01
  7.069  0.238E+00  0.688E-01  0.847E-01  0.847E-01
  7.079  0.238E+00  0.697E-01  0.843E-01  0.843E-01
  7.089  0.238E+00  0.704E-01  0.839E-01  0.839E-01
  7.099  0.238E+00  0.711E-01  0.835E-01  0.835E-01
  7.109  0.238E+00  0.716E-01  0.830E-01  0.830E-01
  7.119  0.237E+00  0.719E-01  0.825E-01  0.825E-01
  7.129  0.236E+00  0.722E-01  0.820E-01  0.820E-01
  7.139  0.236E+00  0.723E-01  0.816E-01  0.816E-01
  7.149  0.235E+00  0.724E-01  0.812E-01  0.812E-01
  7.159  0.234E+00  0.725E-01  0.808E-01  0.808E-01
  7.169  0.234E+00  0.725E-01  0.805E-01  0.805E-01
  7.179  0.233E+00  0.726E-01  0.803E-01  0.803E-01
  7.189  0.233E+00  0.726E-01  0.802E-01  0.802E-01
  7.199  0.233E+00  0.727E-01  0.801E-01  0.801E-01
  7.209  0.233E+00  0.729E-01  0.802E-01  0.802E-01
  7.219  0.234E+00  0.731E-01  0.803E-01  0.803E-01
  7.229  0.234E+00  0.734E-01  0.805E-01  0.805E-01
  7.239  0.235E+00  0.737E-01  0.808E-01  0.808E-01
  7.249  0.236E+00  0.741E-01  0.811E-01  0.811E-01
  7.259  0.237E+00  0.745E-01  0.815E-01  0.815E-01
  7.269  0.239E+00  0.750E-01  0.819E-01  0.819E-01
  7.279  0.240E+00  0.755E-01  0.823E-01  0.823E-01
  7.289  0.241E+00  0.760E-01  0.827E-01  0.827E-01
  7.299  0.243E+00  0.766E-01  0.831E-01  0.831E-01
  7.309  0.244E+00  0.772E-01  0.834E-01  0.834E-01
  7.319  0.245E+00  0.778E-01  0.836E-01  0.836E-01
  7.329  0.246E+00  0.785E-01  0.838E-01  0.838E-01
  7.339  0.247E+00  0.791E-01  0.838E-01  0.838E-01
  7.349  0.247E+00  0.797E-01  0.838E-01  0.838E-01
  7.359  0.248E+00  0.804E-01  0.837E-01  0.837E-01
  7.369  0.248E+00  0.810E-01  0.835E-01  0.835E-01
  7.379  0.248E+00  0.816E-01  0.832E-01  0.832E-01
  7.389  0.248E+00  0.823E-01  0.828E-01  0.828E-01
  7.399  0.248E+00  0.830E-01  0.823E-01  0.823E-01
  7.409  0.247E+00  0.836E-01  0.818E-01  0.818E-01
  7.419  0.247E+00  0.843E-01  0.812E-01  0.812E-01
  7.429  0.246E+00  0.849E-01  0.806E-01  0.806E-01
  7.439  0.246E+00  0.856E-01  0.800E-01  0.800E-01
  7.449  0.245E+00  0.862E-01  0.794E-01  0.794E-01
  7.459  0.245E+00  0.869E-01  0.789E-01  0.789E-01
  7.469  0.244E+00  0.875E-01  0.783E-01  0.783E-01
  7.479  0.244E+00  0.881E-01  0.778E-01  0.778E-01
  7.489  0.243E+00  0.887E-01  0.774E-01  0.774E-01
  7.499  0.243E+00  0.892E-01  0.770E-01  0.770E-01
  7.509  0.243E+00  0.898E-01  0.766E-01  0.766E-01
  7.519  0.243E+00  0.902E-01  0.764E-01  0.764E-01
  7.529  0.243E+00  0.907E-01  0.762E-01  0.762E-01
  7.539  0.243E+00  0.911E-01  0.760E-01  0.760E-01
  7.549  0.243E+00  0.915E-01  0.759E-01  0.759E-01
  7.559  0.244E+00  0.918E-01  0.759E-01  0.759E-01
  7.569  0.244E+00  0.921E-01  0.758E-01  0.758E-01
  7.579  0.244E+00  0.924E-01  0.759E-01  0.759E-01
  7.589  0.245E+00  0.928E-01  0.759E-01  0.759E-01
  7.599  0.245E+00  0.931E-01  0.760E-01  0.760E-01
  7.609  0.246E+00  0.935E-01  0.760E-01  0.760E-01
  7.619  0.246E+00  0.940E-01  0.761E-01  0.761E-01
  7.629  0.247E+00  0.945E-01  0.762E-01  0.762E-01
  7.639  0.248E+00  0.952E-01  0.762E-01  0.762E-01
  7.649  0.248E+00  0.959E-01  0.763E-01  0.763E-01
  7.659  0.249E+00  0.968E-01  0.763E-01  0.763E-01
  7.669  0.251E+00  0.978E-01  0.764E-01  0.764E-01
  7.679  0.252E+00  0.990E-01  0.764E-01  0.764E-01
  7.689  0.253E+00  0.100E+00  0.764E-01  0.764E-01
  7.699  0.255E+00  0.102E+00  0.765E-01  0.765E-01
  7.709  0.256E+00  0.103E+00  0.765E-01  0.765E-01
  7.719  0.258E+00  0.105E+00  0.765E-01  0.765E-01
  7.729  0.260E+00  0.107E+00  0.766E-01  0.766E-01
  7.739  0.261E+00  0.108E+00  0.766E-01  0.766E-01
  7.749  0.263E+00  0.110E+00  0.766E-01  0.766E-01
  7.759  0.265E+00  0.112E+00  0.767E-01  0.767E-01
  7.769  0.267E+00  0.114E+00  0.767E-01  0.767E-01
  7.779  0.269E+00  0.115E+00  0.767E-01  0.767E-01
  7.789  0.270E+00  0.117E+00  0.768E-01  0.768E-01
  7.799  0.272E+00  0.118E+00  0.768E-01  0.768E-01
  7.809  0.273E+00  0.119E+00  0.767E-01  0.767E-01
  7.819  0.274E+00  0.121E+00  0.767E-01  0.767E-01
  7.829  0.275E+00  0.121E+00  0.766E-01  0.766E-01
  7.839  0.275E+00  0.122E+00  0.765E-01  0.765E-01
  7.849  0.275E+00  0.122E+00  0.764E-01  0.764E-01
  7.859  0.275E+00  0.123E+00  0.762E-01  0.762E-01
  7.869  0.275E+00  0.123E+00  0.760E-01  0.760E-01
  7.879  0.274E+00  0.122E+00  0.758E-01  0.758E-01
  7.889  0.273E+00  0.122E+00  0.755E-01  0.755E-01
  7.899  0.271E+00  0.121E+00  0.752E-01  0.752E-01
  7.909  0.269E+00  0.120E+00  0.748E-01  0.748E-01
  7.919  0.267E+00  0.118E+00  0.745E-01  0.745E-01
  7.929  0.265E+00  0.117E+00  0.740E-01  0.740E-01
  7.939  0.262E+00  0.115E+00  0.736E-01  0.736E-01
  7.949  0.259E+00  0.113E+00  0.731E-01  0.731E-01
  7.959  0.256E+00  0.111E+00  0.726E-01  0.726E-01
  7.969  0.253E+00  0.109E+00  0.721E-01  0.721E-01
  7.979  0.249E+00  0.106E+00  0.715E-01  0.715E-01
  7.989  0.245E+00  0.103E+00  0.709E-01  0.709E-01
  7.999  0.241E+00  0.101E+00  0.703E-01  0.703E-01
  8.009  0.237E+00  0.979E-01  0.697E-01  0.697E-01
  8.019  0.233E+00  0.950E-01  0.690E-01  0.690E-01
  8.029  0.229E+00  0.920E-01  0.683E-01  0.683E-01
  8.039  0.224E+00  0.891E-01  0.676E-01  0.676E-01
  8.049  0.220E+00  0.861E-01  0.669E-01  0.669E-01
  8.059  0.215E+00  0.831E-01  0.662E-01  0.662E-01
  8.069  0.211E+00  0.801E-01  0.654E-01  0.654E-01
  8.079  0.207E+00  0.772E-01  0.647E-01  0.647E-01
  8.089  0.202E+00  0.743E-01  0.640E-01  0.640E-01
  8.099  0.198E+00  0.715E-01  0.632E-01  0.632E-01
  8.109  0.194E+00  0.689E-01  0.625E-01  0.625E-01
  8.119  0.190E+00  0.663E-01  0.619E-01  0.619E-01
  8.129  0.186E+00  0.639E-01  0.612E-01  0.612E-01
  8.139  0.183E+00  0.616E-01  0.606E-01  0.606E-01
  8.149  0.179E+00  0.595E-01  0.600E-01  0.600E-01
  8.159  0.176E+00  0.575E-01  0.594E-01  0.594E-01
  8.169  0.173E+00  0.556E-01  0.588E-01  0.588E-01
  8.179  0.170E+00  0.539E-01  0.583E-01  0.583E-01
  8.189  0.168E+00  0.523E-01  0.577E-01  0.577E-01
  8.199  0.165E+00  0.509E-01  0.572E-01  0.572E-01
  8.209  0.163E+00  0.496E-01  0.567E-01  0.567E-01
  8.219  0.161E+00  0.483E-01  0.561E-01  0.561E-01
  8.229  0.158E+00  0.472E-01  0.556E-01  0.556E-01
  8.239  0.156E+00  0.461E-01  0.550E-01  0.550E-01
  8.249  0.154E+00  0.451E-01  0.543E-01  0.543E-01
  8.259  0.151E+00  0.441E-01  0.537E-01  0.537E-01
  8.269  0.149E+00  0.432E-01  0.530E-01  0.530E-01
  8.279  0.147E+00  0.423E-01  0.522E-01  0.522E-01
  8.289  0.144E+00  0.414E-01  0.514E-01  0.514E-01
  8.299  0.142E+00  0.405E-01  0.506E-01  0.506E-01
  8.309  0.139E+00  0.396E-01  0.497E-01  0.497E-01
  8.319  0.136E+00  0.388E-01  0.488E-01  0.488E-01
  8.329  0.134E+00  0.379E-01  0.479E-01  0.479E-01
  8.339  0.131E+00  0.371E-01  0.469E-01  0.469E-01
  8.349  0.128E+00  0.363E-01  0.459E-01  0.459E-01
  8.359  0.125E+00  0.354E-01  0.449E-01  0.449E-01
  8.369  0.123E+00  0.346E-01  0.439E-01  0.439E-01
  8.379  0.120E+00  0.339E-01  0.429E-01  0.429E-01
  8.389  0.117E+00  0.331E-01  0.419E-01  0.419E-01
  8.399  0.114E+00  0.323E-01  0.409E-01  0.409E-01
  8.409  0.111E+00  0.316E-01  0.399E-01  0.399E-01
  8.419  0.109E+00  0.309E-01  0.390E-01  0.390E-01
  8.429  0.106E+00  0.302E-01  0.380E-01  0.380E-01
  8.439  0.104E+00  0.295E-01  0.371E-01  0.371E-01
  8.449  0.101E+00  0.288E-01  0.361E-01  0.361E-01
  8.459  0.986E-01  0.282E-01  0.352E-01  0.352E-01
  8.469  0.962E-01  0.275E-01  0.344E-01  0.344E-01
  8.479  0.939E-01  0.269E-01  0.335E-01  0.335E-01
  8.489  0.916E-01  0.262E-01  0.327E-01  0.327E-01
  8.499  0.893E-01  0.256E-01  0.318E-01  0.318E-01
  8.509  0.871E-01  0.250E-01  0.311E-01  0.311E-01
  8.519  0.850E-01  0.244E-01  0.303E-01  0.303E-01
  8.529  0.829E-01  0.238E-01  0.296E-01  0.296E-01
  8.539  0.809E-01  0.233E-01  0.288E-01  0.288E-01
  8.549  0.790E-01  0.227E-01  0.281E-01  0.281E-01
  8.559  0.771E-01  0.222E-01  0.274E-01  0.274E-01
  8.569  0.752E-01  0.217E-01  0.268E-01  0.268E-01
  8.579  0.734E-01  0.212E-01  0.261E-01  0.261E-01
  8.589  0.717E-01  0.207E-01  0.255E-01  0.255E-01
  8.599  0.700E-01  0.203E-01  0.249E-01  0.249E-01
  8.609  0.683E-01  0.198E-01  0.243E-01  0.243E-01
  8.619  0.667E-01  0.194E-01  0.237E-01  0.237E-01
  8.629  0.651E-01  0.190E-01  0.231E-01  0.231E-01
  8.639  0.636E-01  0.186E-01  0.225E-01  0.225E-01
  8.649  0.620E-01  0.181E-01  0.219E-01  0.219E-01
  8.659  0.605E-01  0.177E-01  0.214E-01  0.214E-01
  8.669  0.591E-01  0.173E-01  0.209E-01  0.209E-01
  8.679  0.576E-01  0.169E-01  0.203E-01  0.203E-01
  8.689  0.562E-01  0.165E-01  0.198E-01  0.198E-01
  8.699  0.548E-01  0.161E-01  0.193E-01  0.193E-01
  8.709  0.534E-01  0.157E-01  0.188E-01  0.188E-01
  8.719  0.521E-01  0.153E-01  0.184E-01  0.184E-01
  8.729  0.507E-01  0.150E-01  0.179E-01  0.179E-01
  8.739  0.494E-01  0.146E-01  0.174E-01  0.174E-01
  8.749  0.481E-01  0.142E-01  0.170E-01  0.170E-01
  8.759  0.469E-01  0.138E-01  0.165E-01  0.165E-01
  8.769  0.456E-01  0.134E-01  0.161E-01  0.161E-01
  8.779  0.444E-01  0.131E-01  0.157E-01  0.157E-01
  8.789  0.433E-01  0.127E-01  0.153E-01  0.153E-01
  8.799  0.421E-01  0.124E-01  0.149E-01  0.149E-01
  8.809  0.410E-01  0.121E-01  0.145E-01  0.145E-01
  8.819  0.398E-01  0.117E-01  0.141E-01  0.141E-01
  8.829  0.387E-01  0.114E-01  0.137E-01  0.137E-01
  8.839  0.377E-01  0.111E-01  0.133E-01  0.133E-01
  8.849  0.366E-01  0.108E-01  0.129E-01  0.129E-01
  8.859  0.355E-01  0.105E-01  0.125E-01  0.125E-01
  8.869  0.345E-01  0.102E-01  0.122E-01  0.122E-01
  8.879  0.335E-01  0.989E-02  0.118E-01  0.118E-01
  8.889  0.325E-01  0.960E-02  0.114E-01  0.114E-01
  8.899  0.315E-01  0.932E-02  0.111E-01  0.111E-01
  8.909  0.305E-01  0.904E-02  0.107E-01  0.107E-01
  8.919  0.295E-01  0.876E-02  0.104E-01  0.104E-01
  8.929  0.286E-01  0.848E-02  0.101E-01  0.101E-01
  8.939  0.277E-01  0.821E-02  0.972E-02  0.972E-02
  8.949  0.267E-01  0.794E-02  0.940E-02  0.940E-02
  8.959  0.258E-01  0.768E-02  0.908E-02  0.908E-02
  8.969  0.249E-01  0.742E-02  0.876E-02  0.876E-02
  8.979  0.241E-01  0.716E-02  0.846E-02  0.846E-02
  8.989  0.232E-01  0.691E-02  0.816E-02  0.816E-02
  8.999  0.224E-01  0.666E-02  0.786E-02  0.786E-02
  9.009  0.215E-01  0.641E-02  0.757E-02  0.757E-02
  9.019  0.207E-01  0.617E-02  0.728E-02  0.728E-02
  9.029  0.199E-01  0.593E-02  0.700E-02  0.700E-02
  9.039  0.191E-01  0.569E-02  0.672E-02  0.672E-02
  9.049  0.183E-01  0.546E-02  0.644E-02  0.644E-02
  9.059  0.176E-01  0.523E-02  0.617E-02  0.617E-02
  9.069  0.168E-01  0.500E-02  0.591E-02  0.591E-02
  9.079  0.161E-01  0.478E-02  0.564E-02  0.564E-02
  9.089  0.153E-01  0.455E-02  0.539E-02  0.539E-02
  9.099  0.146E-01  0.433E-02  0.513E-02  0.513E-02
  9.109  0.139E-01  0.412E-02  0.488E-02  0.488E-02
  9.119  0.132E-01  0.391E-02  0.464E-02  0.464E-02
  9.129  0.125E-01  0.370E-02  0.439E-02  0.439E-02
  9.139  0.118E-01  0.349E-02  0.416E-02  0.416E-02
  9.149  0.111E-01  0.329E-02  0.393E-02  0.393E-02
  9.159  0.105E-01  0.309E-02  0.370E-02  0.370E-02
  9.169  0.986E-02  0.290E-02  0.348E-02  0.348E-02
  9.179  0.923E-02  0.271E-02  0.326E-02  0.326E-02
  9.189  0.862E-02  0.252E-02  0.305E-02  0.305E-02
  9.199  0.803E-02  0.234E-02  0.285E-02  0.285E-02
  9.209  0.746E-02  0.216E-02  0.265E-02  0.265E-02
  9.219  0.690E-02  0.199E-02  0.245E-02  0.245E-02
  9.229  0.636E-02  0.183E-02  0.226E-02  0.226E-02
  9.239  0.584E-02  0.167E-02  0.208E-02  0.208E-02
  9.249  0.534E-02  0.152E-02  0.191E-02  0.191E-02
  9.259  0.486E-02  0.137E-02  0.174E-02  0.174E-02
  9.269  0.441E-02  0.124E-02  0.158E-02  0.158E-02
  9.279  0.397E-02  0.111E-02  0.143E-02  0.143E-02
  9.289  0.357E-02  0.987E-03  0.129E-02  0.129E-02
  9.299  0.318E-02  0.873E-03  0.116E-02  0.116E-02
  9.309  0.283E-02  0.768E-03  0.103E-02  0.103E-02
  9.319  0.250E-02  0.672E-03  0.912E-03  0.912E-03
  9.329  0.219E-02  0.583E-03  0.804E-03  0.804E-03
  9.339  0.191E-02  0.503E-03  0.704E-03  0.704E-03
  9.349  0.166E-02  0.431E-03  0.613E-03  0.613E-03
  9.359  0.143E-02  0.367E-03  0.530E-03  0.530E-03
  9.369  0.122E-02  0.310E-03  0.456E-03  0.456E-03
  9.379  0.104E-02  0.260E-03  0.389E-03  0.389E-03
  9.389  0.876E-03  0.216E-03  0.330E-03  0.330E-03
  9.399  0.734E-03  0.178E-03  0.278E-03  0.278E-03
  9.409  0.610E-03  0.146E-03  0.232E-03  0.232E-03
  9.419  0.504E-03  0.119E-03  0.193E-03  0.193E-03
  9.429  0.413E-03  0.955E-04  0.159E-03  0.159E-03
  9.439  0.336E-03  0.762E-04  0.130E-03  0.130E-03
  9.449  0.271E-03  0.604E-04  0.105E-03  0.105E-03
  9.459  0.217E-03  0.474E-04  0.846E-04  0.846E-04
  9.469  0.172E-03  0.369E-04  0.675E-04  0.675E-04
  9.479  0.135E-03  0.284E-04  0.534E-04  0.534E-04
  9.489  0.106E-03  0.217E-04  0.419E-04  0.419E-04
  9.499  0.817E-04  0.165E-04  0.326E-04  0.326E-04
  9.509  0.627E-04  0.124E-04  0.251E-04  0.251E-04
  9.519  0.477E-04  0.919E-05  0.192E-04  0.192E-04
  9.529  0.359E-04  0.678E-05  0.146E-04  0.146E-04
  9.539  0.268E-04  0.495E-05  0.110E-04  0.110E-04
  9.549  0.199E-04  0.358E-05  0.816E-05  0.816E-05
  9.559  0.146E-04  0.256E-05  0.602E-05  0.602E-05
  9.569  0.106E-04  0.182E-05  0.440E-05  0.440E-05
  9.579  0.765E-05  0.128E-05  0.319E-05  0.319E-05
  9.589  0.547E-05  0.888E-06  0.229E-05  0.229E-05
  9.599  0.387E-05  0.612E-06  0.163E-05  0.163E-05
  9.609  0.271E-05  0.418E-06  0.115E-05  0.115E-05
  9.619  0.188E-05  0.282E-06  0.800E-06  0.800E-06
  9.629  0.130E-05  0.189E-06  0.553E-06  0.553E-06
  9.639  0.883E-06  0.125E-06  0.379E-06  0.379E-06
  9.649  0.596E-06  0.821E-07  0.257E-06  0.257E-06
  9.659  0.398E-06  0.533E-07  0.173E-06  0.173E-06
  9.669  0.264E-06  0.343E-07  0.115E-06  0.115E-06
  9.679  0.173E-06  0.218E-07  0.756E-07  0.756E-07
  9.689  0.112E-06  0.137E-07  0.493E-07  0.493E-07
  9.699  0.722E-07  0.857E-08  0.318E-07  0.318E-07
  9.709  0.460E-07  0.529E-08  0.204E-07  0.204E-07
  9.719  0.290E-07  0.324E-08  0.129E-07  0.129E-07
  9.729  0.181E-07  0.196E-08  0.808E-08  0.808E-08
  9.739  0.112E-07  0.117E-08  0.502E-08  0.502E-08
  9.749  0.686E-08  0.695E-09  0.308E-08  0.308E-08
  9.759  0.416E-08  0.408E-09  0.188E-08  0.188E-08
  9.769  0.250E-08  0.237E-09  0.113E-08  0.113E-08
  9.779  0.148E-08  0.136E-09  0.673E-09  0.673E-09
  9.789  0.872E-09  0.775E-10  0.397E-09  0.397E-09
  9.799  0.508E-09  0.437E-10  0.232E-09  0.232E-09
  9.809  0.293E-09  0.243E-10  0.134E-09  0.134E-09
  9.819  0.167E-09  0.134E-10  0.768E-10  0.768E-10
  9.829  0.944E-10  0.733E-11  0.435E-10  0.435E-10
  9.839  0.528E-10  0.396E-11  0.244E-10  0.244E-10
  9.849  0.292E-10  0.212E-11  0.136E-10  0.136E-10
  9.859  0.160E-10  0.112E-11  0.744E-11  0.744E-11
  9.869  0.868E-11  0.587E-12  0.405E-11  0.405E-11
  9.879  0.466E-11  0.303E-12  0.218E-11  0.218E-11
  9.889  0.247E-11  0.155E-12  0.116E-11  0.116E-11
  9.899  0.130E-11  0.785E-13  0.611E-12  0.611E-12
  9.909  0.677E-12  0.394E-13  0.319E-12  0.319E-12
  9.919  0.348E-12  0.192E-13  0.165E-12  0.165E-12
  9.929  0.177E-12  0.945E-14  0.839E-13  0.839E-13
  9.939  0.873E-13  0.399E-14  0.416E-13  0.416E-13
  9.949  0.435E-13  0.194E-14  0.208E-13  0.208E-13
  9.959  0.211E-13  0.926E-15  0.101E-13  0.101E-13
  9.969  0.101E-13  0.184E-15  0.494E-14  0.494E-14
  9.979  0.489E-14  0.876E-16  0.240E-14  0.240E-14
  9.989  0.189E-14  0.896E-23  0.945E-15  0.945E-15
  9.999  0.614E-15  0.144E-24  0.307E-15  0.307E-15
 10.009  0.170E-15  0.456E-25  0.850E-16  0.850E-16
 10.019  0.000E+00  0.000E+00  0.000E+00  0.000E+00
 10.029  0.000E+00  0.000E+00  0.000E+00  0.000E+00
 10.039  0.000E+00  0.000E+00  0.000E+00  0.000E+00
 10.049  0.000E+00  0.000E+00  0.000E+00  0.000E+00
 10.059  0.000E+00  0.000E+00  0.000E+00  0.000E+00
 10.069  0.000E+00  0.000E+00  0.000E+00  0.000E+00
 10.079  0.000E+00  0.000E+00  0.000E+00  0.000E+00
 10.089  0.000E+00  0.000E+00  0.000E+00  0.000E+00
 10.099  0.000E+00  0.000E+00  0.000E+00  0.000E+00
 10.109  0.000E+00  0.000E+00  0.000E+00  0.000E+00
 10.119  0.000E+00  0.000E+00  0.000E+00  0.000E+00
 10.129  0.000E+00  0.000E+00  0.000E+00  0.000E+00
 10.139  0.000E+00  0.000E+00  0.000E+00  0.000E+00
 10.149  0.000E+00  0.000E+00  0.000E+00  0.000E+00
 10.159  0.000E+00  0.000E+00  0.000E+00  0.000E+00
 10.169  0.000E+00  0.000E+00  0.000E+00  0.000E+00
 10.179  0.000E+00  0.000E+00  0.000E+00  0.000E+00
 10.189  0.000E+00  0.000E+00  0.000E+00  0.000E+00
 10.199  0.000E+00  0.000E+00  0.000E+00  0.000E+00
 10.209  0.000E+00  0.000E+00  0.000E+00  0.000E+00
 10.219  0.000E+00  0.000E+00  0.000E+00  0.000E+00
 10.229  0.000E+00  0.000E+00  0.000E+00  0.000E+00
 10.239  0.000E+00  0.000E+00  0.000E+00  0.000E+00
 10.249  0.000E+00  0.000E+00  0.000E+00  0.000E+00
 10.259  0.000E+00  0.000E+00  0.000E+00  0.000E+00
 10.269  0.000E+00  0.000E+00  0.000E+00  0.000E+00
 10.279  0.000E+00  0.000E+00  0.000E+00  0.000E+00
 10.289  0.000E+00  0.000E+00  0.000E+00  0.000E+00
 10.299  0.000E+00  0.000E+00  0.000E+00  0.000E+00
 10.309  0.000E+00  0.000E+00  0.000E+00  0.000E+00
 10.319  0.000E+00  0.000E+00  0.000E+00  0.000E+00
 10.329  0.000E+00  0.000E+00  0.000E+00  0.000E+00
 10.339  0.000E+00  0.000E+00  0.000E+00  0.000E+00
 10.349  0.000E+00  0.000E+00  0.000E+00  0.000E+00
 10.359  0.000E+00  0.000E+00  0.000E+00  0.000E+00
 10.369  0.147E-16  0.147E-16  0.243E-24  0.243E-24
 10.379  0.308E-16  0.308E-16  0.508E-24  0.508E-24
 10.389  0.638E-16  0.638E-16  0.105E-23  0.105E-23
 10.399  0.131E-15  0.131E-15  0.216E-23  0.216E-23
 10.409  0.265E-15  0.265E-15  0.438E-23  0.438E-23
 10.419  0.532E-15  0.532E-15  0.878E-23  0.878E-23
 10.429  0.106E-14  0.106E-14  0.174E-22  0.174E-22
 10.439  0.207E-14  0.207E-14  0.342E-22  0.342E-22
 10.449  0.403E-14  0.403E-14  0.665E-22  0.665E-22
 10.459  0.773E-14  0.773E-14  0.128E-21  0.128E-21
 10.469  0.147E-13  0.147E-13  0.243E-21  0.243E-21
 10.479  0.276E-13  0.276E-13  0.456E-21  0.456E-21
 10.489  0.514E-13  0.514E-13  0.849E-21  0.849E-21
 10.499  0.946E-13  0.946E-13  0.156E-20  0.156E-20
 10.509  0.172E-12  0.172E-12  0.284E-20  0.284E-20
 10.519  0.310E-12  0.310E-12  0.512E-20  0.512E-20
 10.529  0.552E-12  0.552E-12  0.912E-20  0.912E-20
 10.539  0.974E-12  0.974E-12  0.161E-19  0.161E-19
 10.549  0.170E-11  0.170E-11  0.280E-19  0.280E-19
 10.559  0.293E-11  0.293E-11  0.483E-19  0.483E-19
 10.569  0.499E-11  0.499E-11  0.825E-19  0.825E-19
 10.579  0.843E-11  0.843E-11  0.139E-18  0.139E-18
 10.589  0.141E-10  0.141E-10  0.232E-18  0.232E-18
 10.599  0.232E-10  0.232E-10  0.384E-18  0.384E-18
 10.609  0.380E-10  0.380E-10  0.627E-15  0.627E-15
 10.619  0.614E-10  0.614E-10  0.131E-14  0.131E-14
 10.629  0.982E-10  0.982E-10  0.270E-14  0.270E-14
 10.639  0.155E-09  0.155E-09  0.552E-14  0.552E-14
 10.649  0.243E-09  0.243E-09  0.112E-13  0.112E-13
 10.659  0.376E-09  0.376E-09  0.223E-13  0.223E-13
 10.669  0.576E-09  0.576E-09  0.441E-13  0.441E-13
 10.679  0.873E-09  0.873E-09  0.863E-13  0.863E-13
 10.689  0.131E-08  0.131E-08  0.167E-12  0.167E-12
 10.699  0.194E-08  0.194E-08  0.320E-12  0.320E-12
 10.709  0.285E-08  0.285E-08  0.606E-12  0.606E-12
 10.719  0.413E-08  0.413E-08  0.114E-11  0.114E-11
 10.729  0.594E-08  0.593E-08  0.210E-11  0.210E-11
 10.739  0.844E-08  0.843E-08  0.386E-11  0.386E-11
 10.749  0.119E-07  0.118E-07  0.700E-11  0.700E-11
 10.759  0.165E-07  0.165E-07  0.126E-10  0.126E-10
 10.769  0.227E-07  0.227E-07  0.223E-10  0.223E-10
 10.779  0.309E-07  0.308E-07  0.392E-10  0.392E-10
 10.789  0.417E-07  0.416E-07  0.681E-10  0.681E-10
 10.799  0.556E-07  0.554E-07  0.117E-09  0.117E-09
 10.809  0.735E-07  0.731E-07  0.199E-09  0.199E-09
 10.819  0.961E-07  0.955E-07  0.335E-09  0.335E-09
 10.829  0.125E-06  0.123E-06  0.557E-09  0.557E-09
 10.839  0.160E-06  0.158E-06  0.916E-09  0.916E-09
 10.849  0.203E-06  0.200E-06  0.149E-08  0.149E-08
 10.859  0.256E-06  0.251E-06  0.240E-08  0.240E-08
 10.869  0.320E-06  0.313E-06  0.383E-08  0.383E-08
 10.879  0.397E-06  0.385E-06  0.604E-08  0.604E-08
 10.889  0.490E-06  0.471E-06  0.942E-08  0.942E-08
 10.899  0.600E-06  0.571E-06  0.145E-07  0.145E-07
 10.909  0.731E-06  0.687E-06  0.222E-07  0.222E-07
 10.919  0.888E-06  0.821E-06  0.335E-07  0.335E-07
 10.929  0.108E-05  0.976E-06  0.500E-07  0.500E-07
 10.939  0.130E-05  0.115E-05  0.739E-07  0.739E-07
 10.949  0.157E-05  0.136E-05  0.108E-06  0.108E-06
 10.959  0.191E-05  0.159E-05  0.156E-06  0.156E-06
 10.969  0.231E-05  0.186E-05  0.224E-06  0.224E-06
 10.979  0.281E-05  0.218E-05  0.316E-06  0.316E-06
 10.989  0.343E-05  0.255E-05  0.443E-06  0.443E-06
 10.999  0.421E-05  0.298E-05  0.614E-06  0.614E-06
 11.009  0.517E-05  0.349E-05  0.841E-06  0.841E-06
 11.019  0.637E-05  0.409E-05  0.114E-05  0.114E-05
 11.029  0.786E-05  0.480E-05  0.153E-05  0.153E-05
 11.039  0.970E-05  0.564E-05  0.203E-05  0.203E-05
 11.049  0.120E-04  0.664E-05  0.267E-05  0.267E-05
 11.059  0.147E-04  0.781E-05  0.346E-05  0.346E-05
 11.069  0.181E-04  0.918E-05  0.445E-05  0.445E-05
 11.079  0.221E-04  0.108E-04  0.567E-05  0.567E-05
 11.089  0.269E-04  0.126E-04  0.713E-05  0.713E-05
 11.099  0.325E-04  0.147E-04  0.889E-05  0.889E-05
 11.109  0.390E-04  0.171E-04  0.110E-04  0.110E-04
 11.119  0.465E-04  0.197E-04  0.134E-04  0.134E-04
 11.129  0.550E-04  0.227E-04  0.161E-04  0.161E-04
 11.139  0.645E-04  0.259E-04  0.193E-04  0.193E-04
 11.149  0.751E-04  0.294E-04  0.229E-04  0.229E-04
 11.159  0.868E-04  0.332E-04  0.268E-04  0.268E-04
 11.169  0.995E-04  0.372E-04  0.311E-04  0.311E-04
 11.179  0.113E-03  0.414E-04  0.358E-04  0.358E-04
 11.189  0.127E-03  0.459E-04  0.408E-04  0.408E-04
 11.199  0.143E-03  0.505E-04  0.461E-04  0.461E-04
 11.209  0.159E-03  0.552E-04  0.516E-04  0.516E-04
 11.219  0.175E-03  0.602E-04  0.573E-04  0.573E-04
 11.229  0.192E-03  0.653E-04  0.632E-04  0.632E-04
 11.239  0.209E-03  0.706E-04  0.691E-04  0.691E-04
 11.249  0.226E-03  0.761E-04  0.751E-04  0.751E-04
 11.259  0.244E-03  0.819E-04  0.810E-04  0.810E-04
 11.269  0.262E-03  0.881E-04  0.869E-04  0.869E-04
 11.279  0.280E-03  0.945E-04  0.927E-04  0.927E-04
 11.289  0.298E-03  0.101E-03  0.984E-04  0.984E-04
 11.299  0.317E-03  0.109E-03  0.104E-03  0.104E-03
 11.309  0.336E-03  0.117E-03  0.110E-03  0.110E-03
 11.319  0.355E-03  0.125E-03  0.115E-03  0.115E-03
 11.329  0.374E-03  0.134E-03  0.120E-03  0.120E-03
 11.339  0.394E-03  0.144E-03  0.125E-03  0.125E-03
 11.349  0.414E-03  0.153E-03  0.130E-03  0.130E-03
 11.359  0.434E-03  0.163E-03  0.135E-03  0.135E-03
 11.369  0.453E-03  0.173E-03  0.140E-03  0.140E-03
 11.379  0.473E-03  0.183E-03  0.145E-03  0.145E-03
 11.389  0.491E-03  0.193E-03  0.149E-03  0.149E-03
 11.399  0.508E-03  0.202E-03  0.153E-03  0.153E-03
 11.409  0.524E-03  0.210E-03  0.157E-03  0.157E-03
 11.419  0.538E-03  0.217E-03  0.161E-03  0.161E-03
 11.429  0.550E-03  0.223E-03  0.164E-03  0.164E-03
 11.439  0.561E-03  0.227E-03  0.167E-03  0.167E-03
 11.449  0.569E-03  0.230E-03  0.170E-03  0.170E-03
 11.459  0.576E-03  0.232E-03  0.172E-03  0.172E-03
 11.469  0.581E-03  0.232E-03  0.174E-03  0.174E-03
 11.479  0.584E-03  0.231E-03  0.177E-03  0.177E-03
 11.489  0.588E-03  0.228E-03  0.180E-03  0.180E-03
 11.499  0.591E-03  0.225E-03  0.183E-03  0.183E-03
 11.509  0.595E-03  0.222E-03  0.187E-03  0.187E-03
 11.519  0.601E-03  0.219E-03  0.191E-03  0.191E-03
 11.529  0.609E-03  0.215E-03  0.197E-03  0.197E-03
 11.539  0.621E-03  0.213E-03  0.204E-03  0.204E-03
 11.549  0.638E-03  0.212E-03  0.213E-03  0.213E-03
 11.559  0.659E-03  0.213E-03  0.223E-03  0.223E-03
 11.569  0.687E-03  0.216E-03  0.236E-03  0.236E-03
 11.579  0.721E-03  0.221E-03  0.250E-03  0.250E-03
 11.589  0.763E-03  0.229E-03  0.267E-03  0.267E-03
 11.599  0.812E-03  0.240E-03  0.286E-03  0.286E-03
 11.609  0.869E-03  0.254E-03  0.308E-03  0.308E-03
 11.619  0.935E-03  0.272E-03  0.332E-03  0.332E-03
 11.629  0.101E-02  0.293E-03  0.358E-03  0.358E-03
 11.639  0.109E-02  0.318E-03  0.386E-03  0.386E-03
 11.649  0.118E-02  0.346E-03  0.416E-03  0.416E-03
 11.659  0.127E-02  0.377E-03  0.449E-03  0.449E-03
 11.669  0.138E-02  0.412E-03  0.483E-03  0.483E-03
 11.679  0.149E-02  0.450E-03  0.518E-03  0.518E-03
 11.689  0.160E-02  0.490E-03  0.554E-03  0.554E-03
 11.699  0.171E-02  0.532E-03  0.590E-03  0.590E-03
 11.709  0.183E-02  0.576E-03  0.626E-03  0.626E-03
 11.719  0.194E-02  0.620E-03  0.662E-03  0.662E-03
 11.729  0.206E-02  0.665E-03  0.696E-03  0.696E-03
 11.739  0.217E-02  0.709E-03  0.729E-03  0.729E-03
 11.749  0.227E-02  0.752E-03  0.760E-03  0.760E-03
 11.759  0.237E-02  0.792E-03  0.788E-03  0.788E-03
 11.769  0.245E-02  0.829E-03  0.812E-03  0.812E-03
 11.779  0.253E-02  0.862E-03  0.833E-03  0.833E-03
 11.789  0.259E-02  0.890E-03  0.849E-03  0.849E-03
 11.799  0.264E-02  0.913E-03  0.862E-03  0.862E-03
 11.809  0.267E-02  0.930E-03  0.869E-03  0.869E-03
 11.819  0.269E-02  0.940E-03  0.873E-03  0.873E-03
 11.829  0.269E-02  0.944E-03  0.871E-03  0.871E-03
 11.839  0.267E-02  0.941E-03  0.866E-03  0.866E-03
 11.849  0.265E-02  0.933E-03  0.856E-03  0.856E-03
 11.859  0.261E-02  0.919E-03  0.843E-03  0.843E-03
 11.869  0.255E-02  0.900E-03  0.827E-03  0.827E-03
 11.879  0.250E-02  0.877E-03  0.809E-03  0.809E-03
 11.889  0.243E-02  0.852E-03  0.789E-03  0.789E-03
 11.899  0.236E-02  0.824E-03  0.769E-03  0.769E-03
 11.909  0.229E-02  0.797E-03  0.749E-03  0.749E-03
 11.919  0.223E-02  0.771E-03  0.730E-03  0.730E-03
 11.929  0.217E-02  0.747E-03  0.713E-03  0.713E-03
 11.939  0.213E-02  0.727E-03  0.700E-03  0.700E-03
 11.949  0.210E-02  0.712E-03  0.692E-03  0.692E-03
 11.959  0.208E-02  0.703E-03  0.689E-03  0.689E-03
 11.969  0.209E-02  0.700E-03  0.693E-03  0.693E-03
 11.979  0.211E-02  0.705E-03  0.704E-03  0.704E-03
 11.989  0.216E-02  0.717E-03  0.723E-03  0.723E-03
 11.999  0.224E-02  0.738E-03  0.750E-03  0.750E-03
 12.009  0.234E-02  0.767E-03  0.787E-03  0.787E-03
 12.019  0.247E-02  0.803E-03  0.833E-03  0.833E-03
 12.029  0.262E-02  0.847E-03  0.888E-03  0.888E-03
 12.039  0.280E-02  0.899E-03  0.952E-03  0.952E-03
 12.049  0.300E-02  0.956E-03  0.102E-02  0.102E-02
 12.059  0.323E-02  0.102E-02  0.110E-02  0.110E-02
 12.069  0.347E-02  0.109E-02  0.119E-02  0.119E-02
 12.079  0.372E-02  0.116E-02  0.128E-02  0.128E-02
 12.089  0.398E-02  0.123E-02  0.137E-02  0.137E-02
 12.099  0.425E-02  0.131E-02  0.147E-02  0.147E-02
 12.109  0.453E-02  0.139E-02  0.157E-02  0.157E-02
 12.119  0.480E-02  0.147E-02  0.167E-02  0.167E-02
 12.129  0.506E-02  0.154E-02  0.176E-02  0.176E-02
 12.139  0.532E-02  0.162E-02  0.185E-02  0.185E-02
 12.149  0.556E-02  0.169E-02  0.193E-02  0.193E-02
 12.159  0.578E-02  0.176E-02  0.201E-02  0.201E-02
 12.169  0.597E-02  0.182E-02  0.208E-02  0.208E-02
 12.179  0.614E-02  0.187E-02  0.213E-02  0.213E-02
 12.189  0.629E-02  0.192E-02  0.218E-02  0.218E-02
 12.199  0.640E-02  0.197E-02  0.222E-02  0.222E-02
 12.209  0.649E-02  0.200E-02  0.224E-02  0.224E-02
 12.219  0.654E-02  0.203E-02  0.226E-02  0.226E-02
 12.229  0.657E-02  0.204E-02  0.226E-02  0.226E-02
 12.239  0.658E-02  0.205E-02  0.226E-02  0.226E-02
 12.249  0.656E-02  0.205E-02  0.225E-02  0.225E-02
 12.259  0.652E-02  0.205E-02  0.224E-02  0.224E-02
 12.269  0.647E-02  0.204E-02  0.222E-02  0.222E-02
 12.279  0.642E-02  0.202E-02  0.220E-02  0.220E-02
 12.289  0.636E-02  0.201E-02  0.217E-02  0.217E-02
 12.299  0.630E-02  0.199E-02  0.215E-02  0.215E-02
 12.309  0.625E-02  0.197E-02  0.214E-02  0.214E-02
 12.319  0.621E-02  0.196E-02  0.213E-02  0.213E-02
 12.329  0.619E-02  0.195E-02  0.212E-02  0.212E-02
 12.339  0.619E-02  0.195E-02  0.212E-02  0.212E-02
 12.349  0.621E-02  0.195E-02  0.213E-02  0.213E-02
 12.359  0.626E-02  0.197E-02  0.215E-02  0.215E-02
 12.369  0.633E-02  0.199E-02  0.217E-02  0.217E-02
 12.379  0.642E-02  0.202E-02  0.220E-02  0.220E-02
 12.389  0.653E-02  0.207E-02  0.223E-02  0.223E-02
 12.399  0.666E-02  0.212E-02  0.227E-02  0.227E-02
 12.409  0.681E-02  0.218E-02  0.232E-02  0.232E-02
 12.419  0.697E-02  0.225E-02  0.236E-02  0.236E-02
 12.429  0.714E-02  0.232E-02  0.241E-02  0.241E-02
 12.439  0.732E-02  0.240E-02  0.246E-02  0.246E-02
 12.449  0.751E-02  0.247E-02  0.252E-02  0.252E-02
 12.459  0.769E-02  0.255E-02  0.257E-02  0.257E-02
 12.469  0.788E-02  0.263E-02  0.263E-02  0.263E-02
 12.479  0.807E-02  0.270E-02  0.269E-02  0.269E-02
 12.489  0.826E-02  0.277E-02  0.275E-02  0.275E-02
 12.499  0.846E-02  0.283E-02  0.281E-02  0.281E-02
 12.509  0.865E-02  0.289E-02  0.288E-02  0.288E-02
 12.519  0.885E-02  0.295E-02  0.295E-02  0.295E-02
 12.529  0.906E-02  0.299E-02  0.304E-02  0.304E-02
 12.539  0.928E-02  0.304E-02  0.312E-02  0.312E-02
 12.549  0.951E-02  0.308E-02  0.322E-02  0.322E-02
 12.559  0.975E-02  0.312E-02  0.332E-02  0.332E-02
 12.569  0.100E-01  0.315E-02  0.342E-02  0.342E-02
 12.579  0.103E-01  0.319E-02  0.354E-02  0.354E-02
 12.589  0.105E-01  0.322E-02  0.365E-02  0.365E-02
 12.599  0.108E-01  0.326E-02  0.377E-02  0.377E-02
 12.609  0.111E-01  0.330E-02  0.390E-02  0.390E-02
 12.619  0.114E-01  0.334E-02  0.402E-02  0.402E-02
 12.629  0.117E-01  0.339E-02  0.414E-02  0.414E-02
 12.639  0.119E-01  0.343E-02  0.426E-02  0.426E-02
 12.649  0.122E-01  0.349E-02  0.437E-02  0.437E-02
 12.659  0.125E-01  0.355E-02  0.448E-02  0.448E-02
 12.669  0.128E-01  0.361E-02  0.458E-02  0.458E-02
 12.679  0.130E-01  0.368E-02  0.467E-02  0.467E-02
 12.689  0.133E-01  0.375E-02  0.476E-02  0.476E-02
 12.699  0.135E-01  0.382E-02  0.484E-02  0.484E-02
 12.709  0.137E-01  0.390E-02  0.492E-02  0.492E-02
 12.719  0.140E-01  0.399E-02  0.500E-02  0.500E-02
 12.729  0.142E-01  0.408E-02  0.507E-02  0.507E-02
 12.739  0.144E-01  0.417E-02  0.514E-02  0.514E-02
 12.749  0.147E-01  0.426E-02  0.521E-02  0.521E-02
 12.759  0.149E-01  0.436E-02  0.528E-02  0.528E-02
 12.769  0.152E-01  0.446E-02  0.536E-02  0.536E-02
 12.779  0.154E-01  0.456E-02  0.543E-02  0.543E-02
 12.789  0.157E-01  0.466E-02  0.551E-02  0.551E-02
 12.799  0.159E-01  0.476E-02  0.558E-02  0.558E-02
 12.809  0.162E-01  0.486E-02  0.565E-02  0.565E-02
 12.819  0.164E-01  0.496E-02  0.572E-02  0.572E-02
 12.829  0.166E-01  0.505E-02  0.578E-02  0.578E-02
 12.839  0.168E-01  0.513E-02  0.584E-02  0.584E-02
 12.849  0.170E-01  0.521E-02  0.588E-02  0.588E-02
 12.859  0.171E-01  0.528E-02  0.591E-02  0.591E-02
 12.869  0.172E-01  0.534E-02  0.593E-02  0.593E-02
 12.879  0.172E-01  0.539E-02  0.593E-02  0.593E-02
 12.889  0.173E-01  0.543E-02  0.592E-02  0.592E-02
 12.899  0.172E-01  0.545E-02  0.589E-02  0.589E-02
 12.909  0.172E-01  0.547E-02  0.586E-02  0.586E-02
 12.919  0.171E-01  0.548E-02  0.582E-02  0.582E-02
 12.929  0.170E-01  0.548E-02  0.577E-02  0.577E-02
 12.939  0.169E-01  0.548E-02  0.573E-02  0.573E-02
 12.949  0.169E-01  0.548E-02  0.569E-02  0.569E-02
 12.959  0.168E-01  0.548E-02  0.567E-02  0.567E-02
 12.969  0.168E-01  0.548E-02  0.567E-02  0.567E-02
 12.979  0.169E-01  0.550E-02  0.569E-02  0.569E-02
 12.989  0.170E-01  0.552E-02  0.575E-02  0.575E-02
 12.999  0.172E-01  0.556E-02  0.584E-02  0.584E-02
 13.009  0.176E-01  0.562E-02  0.597E-02  0.597E-02
 13.019  0.180E-01  0.571E-02  0.615E-02  0.615E-02
 13.029  0.185E-01  0.581E-02  0.637E-02  0.637E-02
 13.039  0.192E-01  0.594E-02  0.663E-02  0.663E-02
 13.049  0.200E-01  0.609E-02  0.693E-02  0.693E-02
 13.059  0.208E-01  0.627E-02  0.728E-02  0.728E-02
 13.069  0.218E-01  0.646E-02  0.766E-02  0.766E-02
 13.079  0.228E-01  0.668E-02  0.806E-02  0.806E-02
 13.089  0.239E-01  0.692E-02  0.849E-02  0.849E-02
 13.099  0.250E-01  0.716E-02  0.894E-02  0.894E-02
 13.109  0.262E-01  0.742E-02  0.940E-02  0.940E-02
 13.119  0.274E-01  0.769E-02  0.985E-02  0.985E-02
 13.129  0.286E-01  0.796E-02  0.103E-01  0.103E-01
 13.139  0.297E-01  0.823E-02  0.107E-01  0.107E-01
 13.149  0.308E-01  0.850E-02  0.112E-01  0.112E-01
 13.159  0.319E-01  0.877E-02  0.116E-01  0.116E-01
 13.169  0.329E-01  0.904E-02  0.120E-01  0.120E-01
 13.179  0.339E-01  0.931E-02  0.123E-01  0.123E-01
 13.189  0.349E-01  0.958E-02  0.126E-01  0.126E-01
 13.199  0.358E-01  0.986E-02  0.130E-01  0.130E-01
 13.209  0.366E-01  0.101E-01  0.132E-01  0.132E-01
 13.219  0.375E-01  0.104E-01  0.135E-01  0.135E-01
 13.229  0.384E-01  0.107E-01  0.138E-01  0.138E-01
 13.239  0.393E-01  0.111E-01  0.141E-01  0.141E-01
 13.249  0.403E-01  0.114E-01  0.144E-01  0.144E-01
 13.259  0.413E-01  0.118E-01  0.147E-01  0.147E-01
 13.269  0.425E-01  0.123E-01  0.151E-01  0.151E-01
 13.279  0.438E-01  0.128E-01  0.155E-01  0.155E-01
 13.289  0.453E-01  0.133E-01  0.160E-01  0.160E-01
 13.299  0.470E-01  0.139E-01  0.165E-01  0.165E-01
 13.309  0.489E-01  0.146E-01  0.171E-01  0.171E-01
 13.319  0.511E-01  0.154E-01  0.178E-01  0.178E-01
 13.329  0.535E-01  0.162E-01  0.186E-01  0.186E-01
 13.339  0.562E-01  0.171E-01  0.196E-01  0.196E-01
 13.349  0.593E-01  0.181E-01  0.206E-01  0.206E-01
 13.359  0.626E-01  0.192E-01  0.217E-01  0.217E-01
 13.369  0.662E-01  0.204E-01  0.229E-01  0.229E-01
 13.379  0.701E-01  0.217E-01  0.242E-01  0.242E-01
 13.389  0.743E-01  0.230E-01  0.257E-01  0.257E-01
 13.399  0.788E-01  0.244E-01  0.272E-01  0.272E-01
 13.409  0.836E-01  0.259E-01  0.289E-01  0.289E-01
 13.419  0.887E-01  0.274E-01  0.306E-01  0.306E-01
 13.429  0.940E-01  0.291E-01  0.324E-01  0.324E-01
 13.439  0.995E-01  0.308E-01  0.344E-01  0.344E-01
 13.449  0.105E+00  0.325E-01  0.364E-01  0.364E-01
 13.459  0.111E+00  0.343E-01  0.384E-01  0.384E-01
 13.469  0.117E+00  0.361E-01  0.406E-01  0.406E-01
 13.479  0.124E+00  0.380E-01  0.428E-01  0.428E-01
 13.489  0.130E+00  0.399E-01  0.450E-01  0.450E-01
 13.499  0.136E+00  0.418E-01  0.474E-01  0.474E-01
 13.509  0.143E+00  0.437E-01  0.497E-01  0.497E-01
 13.519  0.150E+00  0.456E-01  0.521E-01  0.521E-01
 13.529  0.157E+00  0.475E-01  0.545E-01  0.545E-01
 13.539  0.163E+00  0.494E-01  0.569E-01  0.569E-01
 13.549  0.170E+00  0.513E-01  0.593E-01  0.593E-01
 13.559  0.177E+00  0.531E-01  0.617E-01  0.617E-01
 13.569  0.183E+00  0.549E-01  0.641E-01  0.641E-01
 13.579  0.189E+00  0.566E-01  0.664E-01  0.664E-01
 13.589  0.196E+00  0.583E-01  0.687E-01  0.687E-01
 13.599  0.202E+00  0.598E-01  0.709E-01  0.709E-01
 13.609  0.207E+00  0.612E-01  0.730E-01  0.730E-01
 13.619  0.212E+00  0.626E-01  0.749E-01  0.749E-01
 13.629  0.217E+00  0.638E-01  0.768E-01  0.768E-01
 13.639  0.222E+00  0.648E-01  0.784E-01  0.784E-01
 13.649  0.226E+00  0.658E-01  0.800E-01  0.800E-01
 13.659  0.229E+00  0.666E-01  0.813E-01  0.813E-01
 13.669  0.232E+00  0.673E-01  0.825E-01  0.825E-01
 13.679  0.235E+00  0.678E-01  0.834E-01  0.834E-01
 13.689  0.237E+00  0.683E-01  0.842E-01  0.842E-01
 13.699  0.238E+00  0.686E-01  0.848E-01  0.848E-01
 13.709  0.239E+00  0.689E-01  0.852E-01  0.852E-01
 13.719  0.240E+00  0.691E-01  0.855E-01  0.855E-01
 13.729  0.241E+00  0.692E-01  0.856E-01  0.856E-01
 13.739  0.241E+00  0.693E-01  0.857E-01  0.857E-01
 13.749  0.241E+00  0.695E-01  0.856E-01  0.856E-01
 13.759  0.240E+00  0.696E-01  0.855E-01  0.855E-01
 13.769  0.240E+00  0.698E-01  0.853E-01  0.853E-01
 13.779  0.240E+00  0.700E-01  0.852E-01  0.852E-01
 13.789  0.241E+00  0.704E-01  0.851E-01  0.851E-01
 13.799  0.241E+00  0.708E-01  0.852E-01  0.852E-01
 13.809  0.242E+00  0.713E-01  0.853E-01  0.853E-01
 13.819  0.243E+00  0.720E-01  0.856E-01  0.856E-01
 13.829  0.245E+00  0.727E-01  0.861E-01  0.861E-01
 13.839  0.247E+00  0.736E-01  0.867E-01  0.867E-01
 13.849  0.250E+00  0.745E-01  0.875E-01  0.875E-01
 13.859  0.252E+00  0.756E-01  0.885E-01  0.885E-01
 13.869  0.256E+00  0.766E-01  0.896E-01  0.896E-01
 13.879  0.259E+00  0.777E-01  0.908E-01  0.908E-01
 13.889  0.263E+00  0.787E-01  0.921E-01  0.921E-01
 13.899  0.266E+00  0.797E-01  0.934E-01  0.934E-01
 13.909  0.270E+00  0.806E-01  0.947E-01  0.947E-01
 13.919  0.273E+00  0.813E-01  0.960E-01  0.960E-01
 13.929  0.276E+00  0.819E-01  0.972E-01  0.972E-01
 13.939  0.279E+00  0.824E-01  0.983E-01  0.983E-01
 13.949  0.281E+00  0.826E-01  0.991E-01  0.991E-01
 13.959  0.282E+00  0.827E-01  0.999E-01  0.999E-01
 13.969  0.283E+00  0.826E-01  0.100E+00  0.100E+00
 13.979  0.284E+00  0.823E-01  0.101E+00  0.101E+00
 13.989  0.283E+00  0.818E-01  0.101E+00  0.101E+00
 13.999  0.282E+00  0.811E-01  0.101E+00  0.101E+00
 14.009  0.281E+00  0.804E-01  0.100E+00  0.100E+00
 14.019  0.279E+00  0.795E-01  0.998E-01  0.998E-01
 14.029  0.277E+00  0.786E-01  0.993E-01  0.993E-01
 14.039  0.275E+00  0.777E-01  0.986E-01  0.986E-01
 14.049  0.273E+00  0.768E-01  0.979E-01  0.979E-01
 14.059  0.271E+00  0.760E-01  0.973E-01  0.973E-01
 14.069  0.269E+00  0.753E-01  0.967E-01  0.967E-01
 14.079  0.267E+00  0.747E-01  0.962E-01  0.962E-01
 14.089  0.266E+00  0.743E-01  0.958E-01  0.958E-01
 14.099  0.265E+00  0.741E-01  0.956E-01  0.956E-01
 14.109  0.265E+00  0.741E-01  0.955E-01  0.955E-01
 14.119  0.266E+00  0.743E-01  0.957E-01  0.957E-01
 14.129  0.267E+00  0.748E-01  0.960E-01  0.960E-01
 14.139  0.269E+00  0.754E-01  0.966E-01  0.966E-01
 14.149  0.271E+00  0.763E-01  0.974E-01  0.974E-01
 14.159  0.274E+00  0.774E-01  0.983E-01  0.983E-01
 14.169  0.278E+00  0.787E-01  0.994E-01  0.994E-01
 14.179  0.281E+00  0.801E-01  0.101E+00  0.101E+00
 14.189  0.286E+00  0.817E-01  0.102E+00  0.102E+00
 14.199  0.290E+00  0.833E-01  0.103E+00  0.103E+00
 14.209  0.295E+00  0.850E-01  0.105E+00  0.105E+00
 14.219  0.299E+00  0.867E-01  0.106E+00  0.106E+00
 14.229  0.303E+00  0.884E-01  0.107E+00  0.107E+00
 14.239  0.307E+00  0.900E-01  0.109E+00  0.109E+00
 14.249  0.311E+00  0.915E-01  0.110E+00  0.110E+00
 14.259  0.314E+00  0.929E-01  0.111E+00  0.111E+00
 14.269  0.317E+00  0.941E-01  0.111E+00  0.111E+00
 14.279  0.319E+00  0.951E-01  0.112E+00  0.112E+00
 14.289  0.320E+00  0.959E-01  0.112E+00  0.112E+00
 14.299  0.321E+00  0.965E-01  0.112E+00  0.112E+00
 14.309  0.322E+00  0.969E-01  0.113E+00  0.113E+00
 14.319  0.322E+00  0.972E-01  0.112E+00  0.112E+00
 14.329  0.322E+00  0.972E-01  0.112E+00  0.112E+00
 14.339  0.321E+00  0.971E-01  0.112E+00  0.112E+00
 14.349  0.320E+00  0.968E-01  0.112E+00  0.112E+00
 14.359  0.319E+00  0.964E-01  0.111E+00  0.111E+00
 14.369  0.318E+00  0.960E-01  0.111E+00  0.111E+00
 14.379  0.317E+00  0.955E-01  0.111E+00  0.111E+00
 14.389  0.316E+00  0.950E-01  0.111E+00  0.111E+00
 14.399  0.316E+00  0.946E-01  0.111E+00  0.111E+00
 14.409  0.316E+00  0.942E-01  0.111E+00  0.111E+00
 14.419  0.316E+00  0.939E-01  0.111E+00  0.111E+00
 14.429  0.317E+00  0.937E-01  0.112E+00  0.112E+00
 14.439  0.319E+00  0.937E-01  0.113E+00  0.113E+00
 14.449  0.321E+00  0.937E-01  0.114E+00  0.114E+00
 14.459  0.324E+00  0.939E-01  0.115E+00  0.115E+00
 14.469  0.327E+00  0.942E-01  0.116E+00  0.116E+00
 14.479  0.331E+00  0.945E-01  0.118E+00  0.118E+00
 14.489  0.335E+00  0.950E-01  0.120E+00  0.120E+00
 14.499  0.339E+00  0.955E-01  0.122E+00  0.122E+00
 14.509  0.343E+00  0.960E-01  0.124E+00  0.124E+00
 14.519  0.348E+00  0.966E-01  0.126E+00  0.126E+00
 14.529  0.352E+00  0.972E-01  0.127E+00  0.127E+00
 14.539  0.356E+00  0.977E-01  0.129E+00  0.129E+00
 14.549  0.360E+00  0.981E-01  0.131E+00  0.131E+00
 14.559  0.364E+00  0.986E-01  0.133E+00  0.133E+00
 14.569  0.367E+00  0.989E-01  0.134E+00  0.134E+00
 14.579  0.369E+00  0.991E-01  0.135E+00  0.135E+00
 14.589  0.372E+00  0.993E-01  0.136E+00  0.136E+00
 14.599  0.373E+00  0.994E-01  0.137E+00  0.137E+00
 14.609  0.375E+00  0.994E-01  0.138E+00  0.138E+00
 14.619  0.375E+00  0.994E-01  0.138E+00  0.138E+00
 14.629  0.376E+00  0.993E-01  0.138E+00  0.138E+00
 14.639  0.376E+00  0.992E-01  0.138E+00  0.138E+00
 14.649  0.376E+00  0.991E-01  0.138E+00  0.138E+00
 14.659  0.376E+00  0.990E-01  0.138E+00  0.138E+00
 14.669  0.376E+00  0.989E-01  0.138E+00  0.138E+00
 14.679  0.376E+00  0.988E-01  0.138E+00  0.138E+00
 14.689  0.376E+00  0.988E-01  0.138E+00  0.138E+00
 14.699  0.376E+00  0.988E-01  0.139E+00  0.139E+00
 14.709  0.376E+00  0.988E-01  0.139E+00  0.139E+00
 14.719  0.377E+00  0.989E-01  0.139E+00  0.139E+00
 14.729  0.378E+00  0.990E-01  0.139E+00  0.139E+00
 14.739  0.379E+00  0.991E-01  0.140E+00  0.140E+00
 14.749  0.380E+00  0.993E-01  0.141E+00  0.141E+00
 14.759  0.382E+00  0.995E-01  0.141E+00  0.141E+00
 14.769  0.384E+00  0.997E-01  0.142E+00  0.142E+00
 14.779  0.386E+00  0.100E+00  0.143E+00  0.143E+00
 14.789  0.389E+00  0.100E+00  0.144E+00  0.144E+00
 14.799  0.392E+00  0.101E+00  0.146E+00  0.146E+00
 14.809  0.395E+00  0.101E+00  0.147E+00  0.147E+00
 14.819  0.398E+00  0.101E+00  0.148E+00  0.148E+00
 14.829  0.401E+00  0.102E+00  0.150E+00  0.150E+00
 14.839  0.404E+00  0.103E+00  0.151E+00  0.151E+00
 14.849  0.408E+00  0.103E+00  0.152E+00  0.152E+00
 14.859  0.411E+00  0.104E+00  0.154E+00  0.154E+00
 14.869  0.414E+00  0.105E+00  0.155E+00  0.155E+00
 14.879  0.417E+00  0.105E+00  0.156E+00  0.156E+00
 14.889  0.420E+00  0.106E+00  0.157E+00  0.157E+00
 14.899  0.423E+00  0.107E+00  0.158E+00  0.158E+00
 14.909  0.425E+00  0.108E+00  0.159E+00  0.159E+00
 14.919  0.426E+00  0.108E+00  0.159E+00  0.159E+00
 14.929  0.427E+00  0.109E+00  0.159E+00  0.159E+00
 14.939  0.427E+00  0.109E+00  0.159E+00  0.159E+00
 14.949  0.426E+00  0.109E+00  0.159E+00  0.159E+00
 14.959  0.424E+00  0.109E+00  0.158E+00  0.158E+00
 14.969  0.422E+00  0.109E+00  0.156E+00  0.156E+00
 14.979  0.418E+00  0.108E+00  0.155E+00  0.155E+00
 14.989  0.414E+00  0.108E+00  0.153E+00  0.153E+00
 14.999  0.408E+00  0.107E+00  0.151E+00  0.151E+00
 15.009  0.402E+00  0.106E+00  0.148E+00  0.148E+00
 15.019  0.396E+00  0.105E+00  0.146E+00  0.146E+00
 15.029  0.389E+00  0.103E+00  0.143E+00  0.143E+00
 15.039  0.381E+00  0.102E+00  0.140E+00  0.140E+00
 15.049  0.374E+00  0.101E+00  0.137E+00  0.137E+00
 15.059  0.366E+00  0.995E-01  0.133E+00  0.133E+00
 15.069  0.359E+00  0.983E-01  0.130E+00  0.130E+00
 15.079  0.351E+00  0.972E-01  0.127E+00  0.127E+00
 15.089  0.344E+00  0.961E-01  0.124E+00  0.124E+00
 15.099  0.338E+00  0.952E-01  0.121E+00  0.121E+00
 15.109  0.332E+00  0.944E-01  0.119E+00  0.119E+00
 15.119  0.326E+00  0.937E-01  0.116E+00  0.116E+00
 15.129  0.321E+00  0.932E-01  0.114E+00  0.114E+00
 15.139  0.317E+00  0.928E-01  0.112E+00  0.112E+00
 15.149  0.313E+00  0.924E-01  0.110E+00  0.110E+00
 15.159  0.309E+00  0.921E-01  0.109E+00  0.109E+00
 15.169  0.307E+00  0.919E-01  0.107E+00  0.107E+00
 15.179  0.304E+00  0.917E-01  0.106E+00  0.106E+00
 15.189  0.302E+00  0.914E-01  0.105E+00  0.105E+00
 15.199  0.300E+00  0.911E-01  0.104E+00  0.104E+00
 15.209  0.298E+00  0.907E-01  0.104E+00  0.104E+00
 15.219  0.296E+00  0.902E-01  0.103E+00  0.103E+00
 15.229  0.295E+00  0.896E-01  0.102E+00  0.102E+00
 15.239  0.293E+00  0.889E-01  0.102E+00  0.102E+00
 15.249  0.291E+00  0.880E-01  0.101E+00  0.101E+00
 15.259  0.289E+00  0.870E-01  0.101E+00  0.101E+00
 15.269  0.286E+00  0.859E-01  0.100E+00  0.100E+00
 15.279  0.284E+00  0.847E-01  0.996E-01  0.996E-01
 15.289  0.281E+00  0.833E-01  0.989E-01  0.989E-01
 15.299  0.278E+00  0.819E-01  0.982E-01  0.982E-01
 15.309  0.275E+00  0.804E-01  0.974E-01  0.974E-01
 15.319  0.272E+00  0.789E-01  0.965E-01  0.965E-01
 15.329  0.269E+00  0.773E-01  0.957E-01  0.957E-01
 15.339  0.265E+00  0.758E-01  0.948E-01  0.948E-01
 15.349  0.262E+00  0.744E-01  0.939E-01  0.939E-01
 15.359  0.259E+00  0.730E-01  0.931E-01  0.931E-01
 15.369  0.256E+00  0.717E-01  0.923E-01  0.923E-01
 15.379  0.254E+00  0.705E-01  0.916E-01  0.916E-01
 15.389  0.252E+00  0.694E-01  0.910E-01  0.910E-01
 15.399  0.250E+00  0.685E-01  0.906E-01  0.906E-01
 15.409  0.248E+00  0.678E-01  0.904E-01  0.904E-01
 15.419  0.248E+00  0.672E-01  0.903E-01  0.903E-01
 15.429  0.247E+00  0.667E-01  0.903E-01  0.903E-01
 15.439  0.248E+00  0.663E-01  0.906E-01  0.906E-01
 15.449  0.248E+00  0.661E-01  0.911E-01  0.911E-01
 15.459  0.249E+00  0.659E-01  0.917E-01  0.917E-01
 15.469  0.251E+00  0.659E-01  0.924E-01  0.924E-01
 15.479  0.252E+00  0.658E-01  0.933E-01  0.933E-01
 15.489  0.254E+00  0.658E-01  0.942E-01  0.942E-01
 15.499  0.256E+00  0.658E-01  0.952E-01  0.952E-01
 15.509  0.258E+00  0.657E-01  0.962E-01  0.962E-01
 15.519  0.260E+00  0.656E-01  0.972E-01  0.972E-01
 15.529  0.262E+00  0.653E-01  0.981E-01  0.981E-01
 15.539  0.263E+00  0.650E-01  0.989E-01  0.989E-01
 15.549  0.264E+00  0.645E-01  0.996E-01  0.996E-01
 15.559  0.264E+00  0.640E-01  0.100E+00  0.100E+00
 15.569  0.264E+00  0.633E-01  0.100E+00  0.100E+00
 15.579  0.263E+00  0.624E-01  0.100E+00  0.100E+00
 15.589  0.262E+00  0.615E-01  0.100E+00  0.100E+00
 15.599  0.260E+00  0.604E-01  0.998E-01  0.998E-01
 15.609  0.257E+00  0.592E-01  0.991E-01  0.991E-01
 15.619  0.254E+00  0.579E-01  0.981E-01  0.981E-01
 15.629  0.250E+00  0.565E-01  0.969E-01  0.969E-01
 15.639  0.246E+00  0.550E-01  0.955E-01  0.955E-01
 15.649  0.241E+00  0.535E-01  0.938E-01  0.938E-01
 15.659  0.236E+00  0.520E-01  0.920E-01  0.920E-01
 15.669  0.230E+00  0.504E-01  0.899E-01  0.899E-01
 15.679  0.224E+00  0.488E-01  0.878E-01  0.878E-01
 15.689  0.218E+00  0.472E-01  0.856E-01  0.856E-01
 15.699  0.212E+00  0.456E-01  0.832E-01  0.832E-01
 15.709  0.206E+00  0.441E-01  0.809E-01  0.809E-01
 15.719  0.200E+00  0.425E-01  0.785E-01  0.785E-01
 15.729  0.193E+00  0.411E-01  0.762E-01  0.762E-01
 15.739  0.187E+00  0.396E-01  0.739E-01  0.739E-01
 15.749  0.182E+00  0.382E-01  0.718E-01  0.718E-01
 15.759  0.176E+00  0.369E-01  0.697E-01  0.697E-01
 15.769  0.171E+00  0.356E-01  0.677E-01  0.677E-01
 15.779  0.166E+00  0.344E-01  0.659E-01  0.659E-01
 15.789  0.162E+00  0.334E-01  0.643E-01  0.643E-01
 15.799  0.158E+00  0.323E-01  0.627E-01  0.627E-01
 15.809  0.154E+00  0.314E-01  0.614E-01  0.614E-01
 15.819  0.151E+00  0.306E-01  0.602E-01  0.602E-01
 15.829  0.148E+00  0.299E-01  0.592E-01  0.592E-01
 15.839  0.146E+00  0.293E-01  0.584E-01  0.584E-01
 15.849  0.144E+00  0.288E-01  0.576E-01  0.576E-01
 15.859  0.142E+00  0.284E-01  0.570E-01  0.570E-01
 15.869  0.141E+00  0.280E-01  0.566E-01  0.566E-01
 15.879  0.140E+00  0.278E-01  0.562E-01  0.562E-01
 15.889  0.140E+00  0.277E-01  0.559E-01  0.559E-01
 15.899  0.139E+00  0.277E-01  0.557E-01  0.557E-01
 15.909  0.139E+00  0.277E-01  0.556E-01  0.556E-01
 15.919  0.139E+00  0.279E-01  0.555E-01  0.555E-01
 15.929  0.139E+00  0.281E-01  0.555E-01  0.555E-01
 15.939  0.139E+00  0.283E-01  0.555E-01  0.555E-01
 15.949  0.140E+00  0.286E-01  0.556E-01  0.556E-01
 15.959  0.140E+00  0.290E-01  0.557E-01  0.557E-01
 15.969  0.141E+00  0.294E-01  0.558E-01  0.558E-01
 15.979  0.142E+00  0.299E-01  0.559E-01  0.559E-01
 15.989  0.143E+00  0.304E-01  0.561E-01  0.561E-01
 15.999  0.144E+00  0.310E-01  0.563E-01  0.563E-01
 16.009  0.145E+00  0.315E-01  0.565E-01  0.565E-01
 16.019  0.146E+00  0.321E-01  0.568E-01  0.568E-01
 16.029  0.147E+00  0.328E-01  0.571E-01  0.571E-01
 16.039  0.148E+00  0.334E-01  0.573E-01  0.573E-01
 16.049  0.149E+00  0.341E-01  0.576E-01  0.576E-01
 16.059  0.151E+00  0.347E-01  0.579E-01  0.579E-01
 16.069  0.152E+00  0.354E-01  0.582E-01  0.582E-01
 16.079  0.153E+00  0.361E-01  0.586E-01  0.586E-01
 16.089  0.155E+00  0.369E-01  0.589E-01  0.589E-01
 16.099  0.156E+00  0.376E-01  0.592E-01  0.592E-01
 16.109  0.157E+00  0.384E-01  0.595E-01  0.595E-01
 16.119  0.159E+00  0.393E-01  0.598E-01  0.598E-01
 16.129  0.160E+00  0.401E-01  0.600E-01  0.600E-01
 16.139  0.162E+00  0.411E-01  0.603E-01  0.603E-01
 16.149  0.163E+00  0.421E-01  0.606E-01  0.606E-01
 16.159  0.165E+00  0.431E-01  0.609E-01  0.609E-01
 16.169  0.167E+00  0.443E-01  0.613E-01  0.613E-01
 16.179  0.169E+00  0.456E-01  0.616E-01  0.616E-01
 16.189  0.171E+00  0.469E-01  0.620E-01  0.620E-01
 16.199  0.173E+00  0.484E-01  0.625E-01  0.625E-01
 16.209  0.176E+00  0.500E-01  0.630E-01  0.630E-01
 16.219  0.179E+00  0.518E-01  0.636E-01  0.636E-01
 16.229  0.182E+00  0.537E-01  0.642E-01  0.642E-01
 16.239  0.186E+00  0.558E-01  0.650E-01  0.650E-01
 16.249  0.190E+00  0.580E-01  0.658E-01  0.658E-01
 16.259  0.194E+00  0.604E-01  0.666E-01  0.666E-01
 16.269  0.198E+00  0.630E-01  0.676E-01  0.676E-01
 16.279  0.203E+00  0.657E-01  0.686E-01  0.686E-01
 16.289  0.208E+00  0.686E-01  0.697E-01  0.697E-01
 16.299  0.213E+00  0.716E-01  0.708E-01  0.708E-01
 16.309  0.219E+00  0.748E-01  0.720E-01  0.720E-01
 16.319  0.225E+00  0.780E-01  0.732E-01  0.732E-01
 16.329  0.230E+00  0.814E-01  0.745E-01  0.745E-01
 16.339  0.236E+00  0.848E-01  0.757E-01  0.757E-01
 16.349  0.242E+00  0.883E-01  0.769E-01  0.769E-01
 16.359  0.248E+00  0.918E-01  0.781E-01  0.781E-01
 16.369  0.254E+00  0.953E-01  0.792E-01  0.792E-01
 16.379  0.259E+00  0.987E-01  0.803E-01  0.803E-01
 16.389  0.265E+00  0.102E+00  0.813E-01  0.813E-01
 16.399  0.270E+00  0.105E+00  0.821E-01  0.821E-01
 16.409  0.274E+00  0.109E+00  0.829E-01  0.829E-01
 16.419  0.279E+00  0.112E+00  0.835E-01  0.835E-01
 16.429  0.283E+00  0.115E+00  0.840E-01  0.840E-01
 16.439  0.286E+00  0.117E+00  0.844E-01  0.844E-01
 16.449  0.289E+00  0.120E+00  0.847E-01  0.847E-01
 16.459  0.292E+00  0.122E+00  0.848E-01  0.848E-01
 16.469  0.294E+00  0.125E+00  0.849E-01  0.849E-01
 16.479  0.296E+00  0.127E+00  0.848E-01  0.848E-01
 16.489  0.298E+00  0.129E+00  0.847E-01  0.847E-01
 16.499  0.300E+00  0.131E+00  0.846E-01  0.846E-01
 16.509  0.301E+00  0.133E+00  0.844E-01  0.844E-01
 16.519  0.303E+00  0.134E+00  0.841E-01  0.841E-01
 16.529  0.304E+00  0.136E+00  0.839E-01  0.839E-01
 16.539  0.305E+00  0.138E+00  0.837E-01  0.837E-01
 16.549  0.307E+00  0.139E+00  0.835E-01  0.835E-01
 16.559  0.308E+00  0.141E+00  0.834E-01  0.834E-01
 16.569  0.310E+00  0.143E+00  0.833E-01  0.833E-01
 16.579  0.311E+00  0.145E+00  0.833E-01  0.833E-01
 16.589  0.313E+00  0.147E+00  0.833E-01  0.833E-01
 16.599  0.315E+00  0.148E+00  0.834E-01  0.834E-01
 16.609  0.317E+00  0.150E+00  0.835E-01  0.835E-01
 16.619  0.320E+00  0.152E+00  0.837E-01  0.837E-01
 16.629  0.322E+00  0.154E+00  0.839E-01  0.839E-01
 16.639  0.324E+00  0.156E+00  0.841E-01  0.841E-01
 16.649  0.327E+00  0.158E+00  0.843E-01  0.843E-01
 16.659  0.329E+00  0.160E+00  0.846E-01  0.846E-01
 16.669  0.331E+00  0.162E+00  0.848E-01  0.848E-01
 16.679  0.333E+00  0.163E+00  0.851E-01  0.851E-01
 16.689  0.336E+00  0.165E+00  0.854E-01  0.854E-01
 16.699  0.338E+00  0.166E+00  0.857E-01  0.857E-01
 16.709  0.340E+00  0.168E+00  0.861E-01  0.861E-01
 16.719  0.342E+00  0.169E+00  0.865E-01  0.865E-01
 16.729  0.344E+00  0.170E+00  0.870E-01  0.870E-01
 16.739  0.347E+00  0.172E+00  0.875E-01  0.875E-01
 16.749  0.349E+00  0.173E+00  0.881E-01  0.881E-01
 16.759  0.351E+00  0.174E+00  0.888E-01  0.888E-01
 16.769  0.354E+00  0.175E+00  0.895E-01  0.895E-01
 16.779  0.357E+00  0.176E+00  0.904E-01  0.904E-01
 16.789  0.360E+00  0.177E+00  0.913E-01  0.913E-01
 16.799  0.363E+00  0.178E+00  0.924E-01  0.924E-01
 16.809  0.366E+00  0.179E+00  0.936E-01  0.936E-01
 16.819  0.369E+00  0.179E+00  0.948E-01  0.948E-01
 16.829  0.373E+00  0.180E+00  0.962E-01  0.962E-01
 16.839  0.376E+00  0.181E+00  0.976E-01  0.976E-01
 16.849  0.380E+00  0.182E+00  0.991E-01  0.991E-01
 16.859  0.384E+00  0.182E+00  0.101E+00  0.101E+00
 16.869  0.388E+00  0.183E+00  0.102E+00  0.102E+00
 16.879  0.392E+00  0.184E+00  0.104E+00  0.104E+00
 16.889  0.397E+00  0.184E+00  0.106E+00  0.106E+00
 16.899  0.401E+00  0.185E+00  0.108E+00  0.108E+00
 16.909  0.406E+00  0.186E+00  0.110E+00  0.110E+00
 16.919  0.411E+00  0.187E+00  0.112E+00  0.112E+00
 16.929  0.417E+00  0.188E+00  0.114E+00  0.114E+00
 16.939  0.423E+00  0.189E+00  0.117E+00  0.117E+00
 16.949  0.429E+00  0.191E+00  0.119E+00  0.119E+00
 16.959  0.435E+00  0.192E+00  0.122E+00  0.122E+00
 16.969  0.442E+00  0.194E+00  0.124E+00  0.124E+00
 16.979  0.450E+00  0.196E+00  0.127E+00  0.127E+00
 16.989  0.457E+00  0.198E+00  0.130E+00  0.130E+00
 16.999  0.465E+00  0.200E+00  0.132E+00  0.132E+00
 17.009  0.473E+00  0.202E+00  0.135E+00  0.135E+00
 17.019  0.481E+00  0.205E+00  0.138E+00  0.138E+00
 17.029  0.489E+00  0.207E+00  0.141E+00  0.141E+00
 17.039  0.497E+00  0.209E+00  0.144E+00  0.144E+00
 17.049  0.504E+00  0.212E+00  0.146E+00  0.146E+00
 17.059  0.511E+00  0.214E+00  0.149E+00  0.149E+00
 17.069  0.518E+00  0.216E+00  0.151E+00  0.151E+00
 17.079  0.525E+00  0.217E+00  0.154E+00  0.154E+00
 17.089  0.530E+00  0.219E+00  0.156E+00  0.156E+00
 17.099  0.536E+00  0.220E+00  0.158E+00  0.158E+00
 17.109  0.540E+00  0.221E+00  0.160E+00  0.160E+00
 17.119  0.544E+00  0.222E+00  0.161E+00  0.161E+00
 17.129  0.548E+00  0.222E+00  0.163E+00  0.163E+00
 17.139  0.550E+00  0.222E+00  0.164E+00  0.164E+00
 17.149  0.553E+00  0.222E+00  0.165E+00  0.165E+00
 17.159  0.555E+00  0.221E+00  0.167E+00  0.167E+00
 17.169  0.556E+00  0.221E+00  0.168E+00  0.168E+00
 17.179  0.557E+00  0.220E+00  0.169E+00  0.169E+00
 17.189  0.558E+00  0.218E+00  0.170E+00  0.170E+00
 17.199  0.559E+00  0.217E+00  0.171E+00  0.171E+00
 17.209  0.559E+00  0.216E+00  0.172E+00  0.172E+00
 17.219  0.559E+00  0.214E+00  0.172E+00  0.172E+00
 17.229  0.558E+00  0.212E+00  0.173E+00  0.173E+00
 17.239  0.557E+00  0.210E+00  0.174E+00  0.174E+00
 17.249  0.556E+00  0.207E+00  0.174E+00  0.174E+00
 17.259  0.554E+00  0.205E+00  0.175E+00  0.175E+00
 17.269  0.552E+00  0.202E+00  0.175E+00  0.175E+00
 17.279  0.549E+00  0.199E+00  0.175E+00  0.175E+00
 17.289  0.545E+00  0.196E+00  0.175E+00  0.175E+00
 17.299  0.541E+00  0.193E+00  0.174E+00  0.174E+00
 17.309  0.536E+00  0.189E+00  0.173E+00  0.173E+00
 17.319  0.530E+00  0.185E+00  0.172E+00  0.172E+00
 17.329  0.523E+00  0.181E+00  0.171E+00  0.171E+00
 17.339  0.515E+00  0.177E+00  0.169E+00  0.169E+00
 17.349  0.507E+00  0.172E+00  0.167E+00  0.167E+00
 17.359  0.497E+00  0.168E+00  0.165E+00  0.165E+00
 17.369  0.487E+00  0.163E+00  0.162E+00  0.162E+00
 17.379  0.477E+00  0.158E+00  0.159E+00  0.159E+00
 17.389  0.466E+00  0.153E+00  0.156E+00  0.156E+00
 17.399  0.454E+00  0.148E+00  0.153E+00  0.153E+00
 17.409  0.442E+00  0.143E+00  0.150E+00  0.150E+00
 17.419  0.430E+00  0.139E+00  0.146E+00  0.146E+00
 17.429  0.418E+00  0.134E+00  0.142E+00  0.142E+00
 17.439  0.406E+00  0.129E+00  0.138E+00  0.138E+00
 17.449  0.394E+00  0.125E+00  0.134E+00  0.134E+00
 17.459  0.382E+00  0.121E+00  0.130E+00  0.130E+00
 17.469  0.370E+00  0.117E+00  0.126E+00  0.126E+00
 17.479  0.358E+00  0.113E+00  0.123E+00  0.123E+00
 17.489  0.346E+00  0.109E+00  0.119E+00  0.119E+00
 17.499  0.335E+00  0.105E+00  0.115E+00  0.115E+00
 17.509  0.324E+00  0.102E+00  0.111E+00  0.111E+00
 17.519  0.313E+00  0.987E-01  0.107E+00  0.107E+00
 17.529  0.303E+00  0.955E-01  0.104E+00  0.104E+00
 17.539  0.293E+00  0.925E-01  0.100E+00  0.100E+00
 17.549  0.283E+00  0.896E-01  0.966E-01  0.966E-01
 17.559  0.273E+00  0.868E-01  0.931E-01  0.931E-01
 17.569  0.264E+00  0.842E-01  0.898E-01  0.898E-01
 17.579  0.255E+00  0.816E-01  0.865E-01  0.865E-01
 17.589  0.246E+00  0.792E-01  0.834E-01  0.834E-01
 17.599  0.238E+00  0.770E-01  0.803E-01  0.803E-01
 17.609  0.229E+00  0.748E-01  0.773E-01  0.773E-01
 17.619  0.221E+00  0.728E-01  0.743E-01  0.743E-01
 17.629  0.214E+00  0.709E-01  0.714E-01  0.714E-01
 17.639  0.206E+00  0.691E-01  0.686E-01  0.686E-01
 17.649  0.199E+00  0.674E-01  0.659E-01  0.659E-01
 17.659  0.192E+00  0.658E-01  0.633E-01  0.633E-01
 17.669  0.186E+00  0.643E-01  0.607E-01  0.607E-01
 17.679  0.179E+00  0.629E-01  0.581E-01  0.581E-01
 17.689  0.173E+00  0.615E-01  0.557E-01  0.557E-01
 17.699  0.167E+00  0.603E-01  0.533E-01  0.533E-01
 17.709  0.161E+00  0.590E-01  0.510E-01  0.510E-01
 17.719  0.155E+00  0.578E-01  0.487E-01  0.487E-01
 17.729  0.150E+00  0.567E-01  0.466E-01  0.466E-01
 17.739  0.145E+00  0.556E-01  0.445E-01  0.445E-01
 17.749  0.140E+00  0.545E-01  0.425E-01  0.425E-01
 17.759  0.135E+00  0.536E-01  0.407E-01  0.407E-01
 17.769  0.130E+00  0.527E-01  0.389E-01  0.389E-01
 17.779  0.126E+00  0.519E-01  0.372E-01  0.372E-01
 17.789  0.123E+00  0.512E-01  0.357E-01  0.357E-01
 17.799  0.119E+00  0.506E-01  0.344E-01  0.344E-01
 17.809  0.116E+00  0.502E-01  0.331E-01  0.331E-01
 17.819  0.114E+00  0.500E-01  0.320E-01  0.320E-01
 17.829  0.112E+00  0.500E-01  0.311E-01  0.311E-01
 17.839  0.111E+00  0.502E-01  0.303E-01  0.303E-01
 17.849  0.110E+00  0.507E-01  0.297E-01  0.297E-01
 17.859  0.110E+00  0.514E-01  0.293E-01  0.293E-01
 17.869  0.110E+00  0.523E-01  0.290E-01  0.290E-01
 17.879  0.111E+00  0.536E-01  0.288E-01  0.288E-01
 17.889  0.113E+00  0.551E-01  0.288E-01  0.288E-01
 17.899  0.115E+00  0.569E-01  0.290E-01  0.290E-01
 17.909  0.118E+00  0.590E-01  0.292E-01  0.292E-01
 17.919  0.121E+00  0.614E-01  0.297E-01  0.297E-01
 17.929  0.124E+00  0.640E-01  0.302E-01  0.302E-01
 17.939  0.129E+00  0.668E-01  0.309E-01  0.309E-01
 17.949  0.133E+00  0.699E-01  0.317E-01  0.317E-01
 17.959  0.138E+00  0.731E-01  0.326E-01  0.326E-01
 17.969  0.144E+00  0.765E-01  0.336E-01  0.336E-01
 17.979  0.149E+00  0.800E-01  0.346E-01  0.346E-01
 17.989  0.155E+00  0.835E-01  0.358E-01  0.358E-01
 17.999  0.161E+00  0.871E-01  0.369E-01  0.369E-01
 18.009  0.167E+00  0.907E-01  0.382E-01  0.382E-01
 18.019  0.173E+00  0.942E-01  0.394E-01  0.394E-01
 18.029  0.179E+00  0.976E-01  0.407E-01  0.407E-01
 18.039  0.185E+00  0.101E+00  0.420E-01  0.420E-01
 18.049  0.190E+00  0.104E+00  0.432E-01  0.432E-01
 18.059  0.196E+00  0.107E+00  0.445E-01  0.445E-01
 18.069  0.201E+00  0.110E+00  0.456E-01  0.456E-01
 18.079  0.206E+00  0.112E+00  0.467E-01  0.467E-01
 18.089  0.210E+00  0.114E+00  0.478E-01  0.478E-01
 18.099  0.214E+00  0.116E+00  0.487E-01  0.487E-01
 18.109  0.218E+00  0.118E+00  0.496E-01  0.496E-01
 18.119  0.221E+00  0.120E+00  0.504E-01  0.504E-01
 18.129  0.224E+00  0.121E+00  0.511E-01  0.511E-01
 18.139  0.226E+00  0.123E+00  0.517E-01  0.517E-01
 18.149  0.228E+00  0.124E+00  0.522E-01  0.522E-01
 18.159  0.230E+00  0.124E+00  0.527E-01  0.527E-01
 18.169  0.231E+00  0.125E+00  0.530E-01  0.530E-01
 18.179  0.233E+00  0.126E+00  0.533E-01  0.533E-01
 18.189  0.234E+00  0.126E+00  0.536E-01  0.536E-01
 18.199  0.234E+00  0.127E+00  0.538E-01  0.538E-01
 18.209  0.235E+00  0.127E+00  0.540E-01  0.540E-01
 18.219  0.236E+00  0.128E+00  0.541E-01  0.541E-01
 18.229  0.236E+00  0.128E+00  0.543E-01  0.543E-01
 18.239  0.237E+00  0.128E+00  0.545E-01  0.545E-01
 18.249  0.238E+00  0.128E+00  0.548E-01  0.548E-01
 18.259  0.238E+00  0.128E+00  0.550E-01  0.550E-01
 18.269  0.239E+00  0.128E+00  0.554E-01  0.554E-01
 18.279  0.240E+00  0.128E+00  0.558E-01  0.558E-01
 18.289  0.241E+00  0.128E+00  0.564E-01  0.564E-01
 18.299  0.242E+00  0.128E+00  0.570E-01  0.570E-01
 18.309  0.244E+00  0.128E+00  0.578E-01  0.578E-01
 18.319  0.246E+00  0.128E+00  0.587E-01  0.587E-01
 18.329  0.248E+00  0.129E+00  0.597E-01  0.597E-01
 18.339  0.251E+00  0.129E+00  0.609E-01  0.609E-01
 18.349  0.254E+00  0.129E+00  0.622E-01  0.622E-01
 18.359  0.257E+00  0.130E+00  0.637E-01  0.637E-01
 18.369  0.261E+00  0.130E+00  0.653E-01  0.653E-01
 18.379  0.265E+00  0.131E+00  0.671E-01  0.671E-01
 18.389  0.270E+00  0.132E+00  0.690E-01  0.690E-01
 18.399  0.275E+00  0.133E+00  0.710E-01  0.710E-01
 18.409  0.281E+00  0.135E+00  0.731E-01  0.731E-01
 18.419  0.287E+00  0.136E+00  0.754E-01  0.754E-01
 18.429  0.293E+00  0.138E+00  0.777E-01  0.777E-01
 18.439  0.300E+00  0.140E+00  0.800E-01  0.800E-01
 18.449  0.307E+00  0.143E+00  0.824E-01  0.824E-01
 18.459  0.315E+00  0.145E+00  0.849E-01  0.849E-01
 18.469  0.323E+00  0.148E+00  0.873E-01  0.873E-01
 18.479  0.331E+00  0.151E+00  0.898E-01  0.898E-01
 18.489  0.339E+00  0.155E+00  0.922E-01  0.922E-01
 18.499  0.348E+00  0.159E+00  0.947E-01  0.947E-01
 18.509  0.358E+00  0.163E+00  0.972E-01  0.972E-01
 18.519  0.367E+00  0.168E+00  0.996E-01  0.996E-01
 18.529  0.377E+00  0.173E+00  0.102E+00  0.102E+00
 18.539  0.388E+00  0.179E+00  0.105E+00  0.105E+00
 18.549  0.399E+00  0.185E+00  0.107E+00  0.107E+00
 18.559  0.410E+00  0.191E+00  0.110E+00  0.110E+00
 18.569  0.422E+00  0.198E+00  0.112E+00  0.112E+00
 18.579  0.435E+00  0.205E+00  0.115E+00  0.115E+00
 18.589  0.448E+00  0.213E+00  0.117E+00  0.117E+00
 18.599  0.462E+00  0.221E+00  0.120E+00  0.120E+00
 18.609  0.477E+00  0.230E+00  0.123E+00  0.123E+00
 18.619  0.492E+00  0.239E+00  0.126E+00  0.126E+00
 18.629  0.507E+00  0.248E+00  0.129E+00  0.129E+00
 18.639  0.523E+00  0.258E+00  0.133E+00  0.133E+00
 18.649  0.540E+00  0.268E+00  0.136E+00  0.136E+00
 18.659  0.556E+00  0.277E+00  0.139E+00  0.139E+00
 18.669  0.573E+00  0.287E+00  0.143E+00  0.143E+00
 18.679  0.591E+00  0.297E+00  0.147E+00  0.147E+00
 18.689  0.608E+00  0.307E+00  0.150E+00  0.150E+00
 18.699  0.626E+00  0.317E+00  0.154E+00  0.154E+00
 18.709  0.643E+00  0.327E+00  0.158E+00  0.158E+00
 18.719  0.660E+00  0.336E+00  0.162E+00  0.162E+00
 18.729  0.677E+00  0.346E+00  0.166E+00  0.166E+00
 18.739  0.693E+00  0.354E+00  0.169E+00  0.169E+00
 18.749  0.709E+00  0.363E+00  0.173E+00  0.173E+00
 18.759  0.724E+00  0.371E+00  0.177E+00  0.177E+00
 18.769  0.739E+00  0.379E+00  0.180E+00  0.180E+00
 18.779  0.752E+00  0.386E+00  0.183E+00  0.183E+00
 18.789  0.765E+00  0.392E+00  0.186E+00  0.186E+00
 18.799  0.777E+00  0.398E+00  0.189E+00  0.189E+00
 18.809  0.787E+00  0.404E+00  0.192E+00  0.192E+00
 18.819  0.796E+00  0.409E+00  0.194E+00  0.194E+00
 18.829  0.805E+00  0.413E+00  0.196E+00  0.196E+00
 18.839  0.812E+00  0.417E+00  0.198E+00  0.198E+00
 18.849  0.819E+00  0.421E+00  0.199E+00  0.199E+00
 18.859  0.824E+00  0.424E+00  0.200E+00  0.200E+00
 18.869  0.829E+00  0.427E+00  0.201E+00  0.201E+00
 18.879  0.834E+00  0.430E+00  0.202E+00  0.202E+00
 18.889  0.838E+00  0.433E+00  0.203E+00  0.203E+00
 18.899  0.842E+00  0.435E+00  0.204E+00  0.204E+00
 18.909  0.847E+00  0.438E+00  0.204E+00  0.204E+00
 18.919  0.851E+00  0.441E+00  0.205E+00  0.205E+00
 18.929  0.856E+00  0.444E+00  0.206E+00  0.206E+00
 18.939  0.861E+00  0.448E+00  0.207E+00  0.207E+00
 18.949  0.867E+00  0.452E+00  0.208E+00  0.208E+00
 18.959  0.873E+00  0.455E+00  0.209E+00  0.209E+00
 18.969  0.880E+00  0.460E+00  0.210E+00  0.210E+00
 18.979  0.888E+00  0.464E+00  0.212E+00  0.212E+00
 18.989  0.895E+00  0.468E+00  0.214E+00  0.214E+00
 18.999  0.903E+00  0.472E+00  0.215E+00  0.215E+00
 19.009  0.911E+00  0.476E+00  0.217E+00  0.217E+00
 19.019  0.918E+00  0.479E+00  0.219E+00  0.219E+00
 19.029  0.925E+00  0.482E+00  0.221E+00  0.221E+00
 19.039  0.931E+00  0.485E+00  0.223E+00  0.223E+00
 19.049  0.937E+00  0.487E+00  0.225E+00  0.225E+00
 19.059  0.941E+00  0.488E+00  0.226E+00  0.226E+00
 19.069  0.944E+00  0.488E+00  0.228E+00  0.228E+00
 19.079  0.946E+00  0.488E+00  0.229E+00  0.229E+00
 19.089  0.946E+00  0.486E+00  0.230E+00  0.230E+00
 19.099  0.945E+00  0.484E+00  0.231E+00  0.231E+00
 19.109  0.943E+00  0.481E+00  0.231E+00  0.231E+00
 19.119  0.939E+00  0.477E+00  0.231E+00  0.231E+00
 19.129  0.934E+00  0.472E+00  0.231E+00  0.231E+00
 19.139  0.928E+00  0.467E+00  0.231E+00  0.231E+00
 19.149  0.922E+00  0.462E+00  0.230E+00  0.230E+00
 19.159  0.915E+00  0.456E+00  0.229E+00  0.229E+00
 19.169  0.907E+00  0.450E+00  0.228E+00  0.228E+00
 19.179  0.899E+00  0.444E+00  0.227E+00  0.227E+00
 19.189  0.891E+00  0.438E+00  0.226E+00  0.226E+00
 19.199  0.883E+00  0.433E+00  0.225E+00  0.225E+00
 19.209  0.875E+00  0.427E+00  0.224E+00  0.224E+00
 19.219  0.868E+00  0.422E+00  0.223E+00  0.223E+00
 19.229  0.861E+00  0.417E+00  0.222E+00  0.222E+00
 19.239  0.854E+00  0.413E+00  0.220E+00  0.220E+00
 19.249  0.848E+00  0.409E+00  0.219E+00  0.219E+00
 19.259  0.843E+00  0.406E+00  0.218E+00  0.218E+00
 19.269  0.838E+00  0.403E+00  0.217E+00  0.217E+00
 19.279  0.833E+00  0.401E+00  0.216E+00  0.216E+00
 19.289  0.830E+00  0.398E+00  0.216E+00  0.216E+00
 19.299  0.826E+00  0.396E+00  0.215E+00  0.215E+00
 19.309  0.824E+00  0.395E+00  0.214E+00  0.214E+00
 19.319  0.821E+00  0.393E+00  0.214E+00  0.214E+00
 19.329  0.819E+00  0.391E+00  0.214E+00  0.214E+00
 19.339  0.817E+00  0.390E+00  0.214E+00  0.214E+00
 19.349  0.815E+00  0.388E+00  0.214E+00  0.214E+00
 19.359  0.813E+00  0.386E+00  0.214E+00  0.214E+00
 19.369  0.811E+00  0.383E+00  0.214E+00  0.214E+00
 19.379  0.809E+00  0.381E+00  0.214E+00  0.214E+00
 19.389  0.807E+00  0.377E+00  0.215E+00  0.215E+00
 19.399  0.804E+00  0.373E+00  0.216E+00  0.216E+00
 19.409  0.801E+00  0.368E+00  0.216E+00  0.216E+00
 19.419  0.797E+00  0.363E+00  0.217E+00  0.217E+00
 19.429  0.793E+00  0.356E+00  0.218E+00  0.218E+00
 19.439  0.788E+00  0.349E+00  0.219E+00  0.219E+00
 19.449  0.782E+00  0.341E+00  0.220E+00  0.220E+00
 19.459  0.775E+00  0.333E+00  0.221E+00  0.221E+00
 19.469  0.768E+00  0.324E+00  0.222E+00  0.222E+00
 19.479  0.761E+00  0.314E+00  0.223E+00  0.223E+00
 19.489  0.752E+00  0.304E+00  0.224E+00  0.224E+00
 19.499  0.744E+00  0.294E+00  0.225E+00  0.225E+00
 19.509  0.735E+00  0.283E+00  0.226E+00  0.226E+00
 19.519  0.725E+00  0.273E+00  0.226E+00  0.226E+00
 19.529  0.716E+00  0.262E+00  0.227E+00  0.227E+00
 19.539  0.707E+00  0.252E+00  0.227E+00  0.227E+00
 19.549  0.698E+00  0.242E+00  0.228E+00  0.228E+00
 19.559  0.690E+00  0.233E+00  0.228E+00  0.228E+00
 19.569  0.682E+00  0.224E+00  0.229E+00  0.229E+00
 19.579  0.674E+00  0.216E+00  0.229E+00  0.229E+00
 19.589  0.668E+00  0.209E+00  0.229E+00  0.229E+00
 19.599  0.662E+00  0.202E+00  0.230E+00  0.230E+00
 19.609  0.657E+00  0.196E+00  0.230E+00  0.230E+00
 19.619  0.652E+00  0.191E+00  0.231E+00  0.231E+00
 19.629  0.649E+00  0.187E+00  0.231E+00  0.231E+00
 19.639  0.646E+00  0.183E+00  0.232E+00  0.232E+00
 19.649  0.644E+00  0.179E+00  0.232E+00  0.232E+00
 19.659  0.643E+00  0.177E+00  0.233E+00  0.233E+00
 19.669  0.642E+00  0.175E+00  0.234E+00  0.234E+00
 19.679  0.642E+00  0.173E+00  0.234E+00  0.234E+00
 19.689  0.642E+00  0.172E+00  0.235E+00  0.235E+00
 19.699  0.642E+00  0.170E+00  0.236E+00  0.236E+00
 19.709  0.642E+00  0.170E+00  0.236E+00  0.236E+00
 19.719  0.642E+00  0.169E+00  0.237E+00  0.237E+00
 19.729  0.643E+00  0.168E+00  0.237E+00  0.237E+00
 19.739  0.643E+00  0.168E+00  0.237E+00  0.237E+00
 19.749  0.643E+00  0.167E+00  0.238E+00  0.238E+00
 19.759  0.642E+00  0.166E+00  0.238E+00  0.238E+00
 19.769  0.641E+00  0.166E+00  0.238E+00  0.238E+00
 19.779  0.640E+00  0.164E+00  0.238E+00  0.238E+00
 19.789  0.638E+00  0.163E+00  0.238E+00  0.238E+00
 19.799  0.636E+00  0.161E+00  0.238E+00  0.238E+00
 19.809  0.634E+00  0.159E+00  0.237E+00  0.237E+00
 19.819  0.631E+00  0.157E+00  0.237E+00  0.237E+00
 19.829  0.627E+00  0.154E+00  0.236E+00  0.236E+00
 19.839  0.623E+00  0.151E+00  0.236E+00  0.236E+00
 19.849  0.618E+00  0.148E+00  0.235E+00  0.235E+00
 19.859  0.613E+00  0.144E+00  0.235E+00  0.235E+00
 19.869  0.608E+00  0.140E+00  0.234E+00  0.234E+00
 19.879  0.601E+00  0.136E+00  0.233E+00  0.233E+00
 19.889  0.595E+00  0.132E+00  0.231E+00  0.231E+00
 19.899  0.588E+00  0.128E+00  0.230E+00  0.230E+00
 19.909  0.580E+00  0.124E+00  0.228E+00  0.228E+00
 19.919  0.573E+00  0.119E+00  0.227E+00  0.227E+00
 19.929  0.565E+00  0.115E+00  0.225E+00  0.225E+00
 19.939  0.557E+00  0.111E+00  0.223E+00  0.223E+00
 19.949  0.549E+00  0.107E+00  0.221E+00  0.221E+00
 19.959  0.541E+00  0.103E+00  0.219E+00  0.219E+00
 19.969  0.534E+00  0.991E-01  0.217E+00  0.217E+00
 19.979  0.527E+00  0.958E-01  0.216E+00  0.216E+00
 19.989  0.521E+00  0.928E-01  0.214E+00  0.214E+00
 19.999  0.515E+00  0.902E-01  0.212E+00  0.212E+00
 20.009  0.510E+00  0.880E-01  0.211E+00  0.211E+00
 20.019  0.507E+00  0.862E-01  0.210E+00  0.210E+00
 20.029  0.504E+00  0.849E-01  0.210E+00  0.210E+00
 20.039  0.502E+00  0.839E-01  0.209E+00  0.209E+00
 20.049  0.502E+00  0.835E-01  0.209E+00  0.209E+00
 20.059  0.502E+00  0.834E-01  0.210E+00  0.210E+00
 20.069  0.504E+00  0.838E-01  0.210E+00  0.210E+00
 20.079  0.506E+00  0.845E-01  0.211E+00  0.211E+00
 20.089  0.510E+00  0.856E-01  0.212E+00  0.212E+00
 20.099  0.514E+00  0.870E-01  0.213E+00  0.213E+00
 20.109  0.518E+00  0.887E-01  0.215E+00  0.215E+00
 20.119  0.523E+00  0.905E-01  0.216E+00  0.216E+00
 20.129  0.528E+00  0.925E-01  0.218E+00  0.218E+00
 20.139  0.533E+00  0.946E-01  0.219E+00  0.219E+00
 20.149  0.537E+00  0.967E-01  0.220E+00  0.220E+00
 20.159  0.542E+00  0.987E-01  0.222E+00  0.222E+00
 20.169  0.546E+00  0.101E+00  0.223E+00  0.223E+00
 20.179  0.550E+00  0.102E+00  0.224E+00  0.224E+00
 20.189  0.553E+00  0.104E+00  0.224E+00  0.224E+00
 20.199  0.555E+00  0.106E+00  0.225E+00  0.225E+00
 20.209  0.557E+00  0.107E+00  0.225E+00  0.225E+00
 20.219  0.558E+00  0.108E+00  0.225E+00  0.225E+00
 20.229  0.558E+00  0.108E+00  0.225E+00  0.225E+00
 20.239  0.558E+00  0.109E+00  0.225E+00  0.225E+00
 20.249  0.558E+00  0.109E+00  0.224E+00  0.224E+00
 20.259  0.557E+00  0.109E+00  0.224E+00  0.224E+00
 20.269  0.555E+00  0.108E+00  0.223E+00  0.223E+00
 20.279  0.553E+00  0.108E+00  0.223E+00  0.223E+00
 20.289  0.551E+00  0.107E+00  0.222E+00  0.222E+00
 20.299  0.549E+00  0.106E+00  0.221E+00  0.221E+00
 20.309  0.547E+00  0.105E+00  0.221E+00  0.221E+00
 20.319  0.544E+00  0.104E+00  0.220E+00  0.220E+00
 20.329  0.541E+00  0.103E+00  0.219E+00  0.219E+00
 20.339  0.538E+00  0.102E+00  0.218E+00  0.218E+00
 20.349  0.535E+00  0.100E+00  0.217E+00  0.217E+00
 20.359  0.531E+00  0.989E-01  0.216E+00  0.216E+00
 20.369  0.527E+00  0.975E-01  0.215E+00  0.215E+00
 20.379  0.523E+00  0.961E-01  0.214E+00  0.214E+00
 20.389  0.519E+00  0.947E-01  0.212E+00  0.212E+00
 20.399  0.515E+00  0.933E-01  0.211E+00  0.211E+00
 20.409  0.510E+00  0.918E-01  0.209E+00  0.209E+00
 20.419  0.505E+00  0.904E-01  0.208E+00  0.208E+00
 20.429  0.501E+00  0.889E-01  0.206E+00  0.206E+00
 20.439  0.496E+00  0.875E-01  0.204E+00  0.204E+00
 20.449  0.491E+00  0.860E-01  0.203E+00  0.203E+00
 20.459  0.487E+00  0.846E-01  0.201E+00  0.201E+00
 20.469  0.482E+00  0.831E-01  0.199E+00  0.199E+00
 20.479  0.478E+00  0.817E-01  0.198E+00  0.198E+00
 20.489  0.473E+00  0.802E-01  0.196E+00  0.196E+00
 20.499  0.469E+00  0.788E-01  0.195E+00  0.195E+00
 20.509  0.465E+00  0.774E-01  0.194E+00  0.194E+00
 20.519  0.461E+00  0.760E-01  0.193E+00  0.193E+00
 20.529  0.458E+00  0.746E-01  0.192E+00  0.192E+00
 20.539  0.455E+00  0.733E-01  0.191E+00  0.191E+00
 20.549  0.451E+00  0.719E-01  0.190E+00  0.190E+00
 20.559  0.448E+00  0.706E-01  0.189E+00  0.189E+00
 20.569  0.445E+00  0.693E-01  0.188E+00  0.188E+00
 20.579  0.443E+00  0.680E-01  0.187E+00  0.187E+00
 20.589  0.440E+00  0.667E-01  0.187E+00  0.187E+00
 20.599  0.438E+00  0.656E-01  0.186E+00  0.186E+00
 20.609  0.435E+00  0.644E-01  0.185E+00  0.185E+00
 20.619  0.433E+00  0.634E-01  0.185E+00  0.185E+00
 20.629  0.431E+00  0.624E-01  0.184E+00  0.184E+00
 20.639  0.430E+00  0.616E-01  0.184E+00  0.184E+00
 20.649  0.428E+00  0.608E-01  0.184E+00  0.184E+00
 20.659  0.427E+00  0.602E-01  0.184E+00  0.184E+00
 20.669  0.427E+00  0.598E-01  0.184E+00  0.184E+00
 20.679  0.427E+00  0.595E-01  0.184E+00  0.184E+00
 20.689  0.427E+00  0.593E-01  0.184E+00  0.184E+00
 20.699  0.428E+00  0.594E-01  0.184E+00  0.184E+00
 20.709  0.429E+00  0.595E-01  0.185E+00  0.185E+00
 20.719  0.431E+00  0.598E-01  0.186E+00  0.186E+00
 20.729  0.433E+00  0.602E-01  0.186E+00  0.186E+00
 20.739  0.435E+00  0.607E-01  0.187E+00  0.187E+00
 20.749  0.437E+00  0.612E-01  0.188E+00  0.188E+00
 20.759  0.440E+00  0.618E-01  0.189E+00  0.189E+00
 20.769  0.442E+00  0.625E-01  0.190E+00  0.190E+00
 20.779  0.444E+00  0.631E-01  0.191E+00  0.191E+00
 20.789  0.446E+00  0.636E-01  0.191E+00  0.191E+00
 20.799  0.448E+00  0.641E-01  0.192E+00  0.192E+00
 20.809  0.449E+00  0.645E-01  0.192E+00  0.192E+00
 20.819  0.450E+00  0.648E-01  0.193E+00  0.193E+00
 20.829  0.450E+00  0.650E-01  0.193E+00  0.193E+00
 20.839  0.450E+00  0.650E-01  0.193E+00  0.193E+00
 20.849  0.449E+00  0.649E-01  0.192E+00  0.192E+00
 20.859  0.448E+00  0.647E-01  0.192E+00  0.192E+00
 20.869  0.447E+00  0.644E-01  0.191E+00  0.191E+00
 20.879  0.445E+00  0.639E-01  0.190E+00  0.190E+00
 20.889  0.443E+00  0.634E-01  0.190E+00  0.190E+00
 20.899  0.440E+00  0.628E-01  0.189E+00  0.189E+00
 20.909  0.438E+00  0.621E-01  0.188E+00  0.188E+00
 20.919  0.435E+00  0.614E-01  0.187E+00  0.187E+00
 20.929  0.433E+00  0.606E-01  0.186E+00  0.186E+00
 20.939  0.431E+00  0.598E-01  0.185E+00  0.185E+00
 20.949  0.429E+00  0.590E-01  0.185E+00  0.185E+00
 20.959  0.427E+00  0.583E-01  0.184E+00  0.184E+00
 20.969  0.425E+00  0.575E-01  0.184E+00  0.184E+00
 20.979  0.424E+00  0.568E-01  0.184E+00  0.184E+00
 20.989  0.423E+00  0.561E-01  0.184E+00  0.184E+00
 20.999  0.422E+00  0.555E-01  0.183E+00  0.183E+00
 21.009  0.422E+00  0.549E-01  0.183E+00  0.183E+00
 21.019  0.421E+00  0.544E-01  0.183E+00  0.183E+00
 21.029  0.421E+00  0.539E-01  0.184E+00  0.184E+00
 21.039  0.421E+00  0.535E-01  0.184E+00  0.184E+00
 21.049  0.421E+00  0.531E-01  0.184E+00  0.184E+00
 21.059  0.420E+00  0.528E-01  0.184E+00  0.184E+00
 21.069  0.420E+00  0.526E-01  0.184E+00  0.184E+00
 21.079  0.420E+00  0.524E-01  0.184E+00  0.184E+00
 21.089  0.419E+00  0.523E-01  0.183E+00  0.183E+00
 21.099  0.419E+00  0.522E-01  0.183E+00  0.183E+00
 21.109  0.418E+00  0.522E-01  0.183E+00  0.183E+00
 21.119  0.417E+00  0.523E-01  0.182E+00  0.182E+00
 21.129  0.416E+00  0.525E-01  0.182E+00  0.182E+00
 21.139  0.416E+00  0.528E-01  0.181E+00  0.181E+00
 21.149  0.415E+00  0.531E-01  0.181E+00  0.181E+00
 21.159  0.414E+00  0.535E-01  0.180E+00  0.180E+00
 21.169  0.413E+00  0.540E-01  0.180E+00  0.180E+00
 21.179  0.413E+00  0.545E-01  0.179E+00  0.179E+00
 21.189  0.412E+00  0.551E-01  0.178E+00  0.178E+00
 21.199  0.411E+00  0.558E-01  0.178E+00  0.178E+00
 21.209  0.411E+00  0.565E-01  0.177E+00  0.177E+00
 21.219  0.410E+00  0.572E-01  0.177E+00  0.177E+00
 21.229  0.410E+00  0.579E-01  0.176E+00  0.176E+00
 21.239  0.410E+00  0.586E-01  0.176E+00  0.176E+00
 21.249  0.409E+00  0.593E-01  0.175E+00  0.175E+00
 21.259  0.409E+00  0.599E-01  0.174E+00  0.174E+00
 21.269  0.408E+00  0.605E-01  0.174E+00  0.174E+00
 21.279  0.407E+00  0.610E-01  0.173E+00  0.173E+00
 21.289  0.406E+00  0.614E-01  0.173E+00  0.173E+00
 21.299  0.405E+00  0.617E-01  0.172E+00  0.172E+00
 21.309  0.404E+00  0.620E-01  0.171E+00  0.171E+00
 21.319  0.403E+00  0.622E-01  0.170E+00  0.170E+00
 21.329  0.401E+00  0.623E-01  0.170E+00  0.170E+00
 21.339  0.400E+00  0.623E-01  0.169E+00  0.169E+00
 21.349  0.398E+00  0.623E-01  0.168E+00  0.168E+00
 21.359  0.397E+00  0.622E-01  0.167E+00  0.167E+00
 21.369  0.395E+00  0.620E-01  0.167E+00  0.167E+00
 21.379  0.394E+00  0.618E-01  0.166E+00  0.166E+00
 21.389  0.392E+00  0.616E-01  0.165E+00  0.165E+00
 21.399  0.391E+00  0.614E-01  0.165E+00  0.165E+00
 21.409  0.390E+00  0.612E-01  0.165E+00  0.165E+00
 21.419  0.390E+00  0.610E-01  0.164E+00  0.164E+00
 21.429  0.389E+00  0.608E-01  0.164E+00  0.164E+00
 21.439  0.389E+00  0.606E-01  0.164E+00  0.164E+00
 21.449  0.389E+00  0.604E-01  0.164E+00  0.164E+00
 21.459  0.389E+00  0.603E-01  0.164E+00  0.164E+00
 21.469  0.389E+00  0.602E-01  0.165E+00  0.165E+00
 21.479  0.390E+00  0.601E-01  0.165E+00  0.165E+00
 21.489  0.390E+00  0.601E-01  0.165E+00  0.165E+00
 21.499  0.390E+00  0.600E-01  0.165E+00  0.165E+00
 21.509  0.391E+00  0.600E-01  0.165E+00  0.165E+00
 21.519  0.391E+00  0.600E-01  0.165E+00  0.165E+00
 21.529  0.390E+00  0.600E-01  0.165E+00  0.165E+00
 21.539  0.390E+00  0.600E-01  0.165E+00  0.165E+00
 21.549  0.389E+00  0.600E-01  0.165E+00  0.165E+00
 21.559  0.388E+00  0.600E-01  0.164E+00  0.164E+00
 21.569  0.386E+00  0.600E-01  0.163E+00  0.163E+00
 21.579  0.384E+00  0.600E-01  0.162E+00  0.162E+00
 21.589  0.382E+00  0.600E-01  0.161E+00  0.161E+00
 21.599  0.380E+00  0.600E-01  0.160E+00  0.160E+00
 21.609  0.377E+00  0.600E-01  0.158E+00  0.158E+00
 21.619  0.374E+00  0.599E-01  0.157E+00  0.157E+00
 21.629  0.371E+00  0.599E-01  0.155E+00  0.155E+00
 21.639  0.367E+00  0.599E-01  0.154E+00  0.154E+00
 21.649  0.364E+00  0.598E-01  0.152E+00  0.152E+00
 21.659  0.361E+00  0.597E-01  0.150E+00  0.150E+00
 21.669  0.357E+00  0.596E-01  0.149E+00  0.149E+00
 21.679  0.354E+00  0.594E-01  0.147E+00  0.147E+00
 21.689  0.351E+00  0.593E-01  0.146E+00  0.146E+00
 21.699  0.348E+00  0.591E-01  0.145E+00  0.145E+00
 21.709  0.345E+00  0.588E-01  0.143E+00  0.143E+00
 21.719  0.343E+00  0.585E-01  0.142E+00  0.142E+00
 21.729  0.340E+00  0.582E-01  0.141E+00  0.141E+00
 21.739  0.338E+00  0.579E-01  0.140E+00  0.140E+00
 21.749  0.336E+00  0.576E-01  0.139E+00  0.139E+00
 21.759  0.334E+00  0.573E-01  0.138E+00  0.138E+00
 21.769  0.332E+00  0.570E-01  0.138E+00  0.138E+00
 21.779  0.331E+00  0.567E-01  0.137E+00  0.137E+00
 21.789  0.330E+00  0.565E-01  0.137E+00  0.137E+00
 21.799  0.329E+00  0.564E-01  0.136E+00  0.136E+00
 21.809  0.329E+00  0.564E-01  0.136E+00  0.136E+00
 21.819  0.329E+00  0.566E-01  0.136E+00  0.136E+00
 21.829  0.330E+00  0.568E-01  0.136E+00  0.136E+00
 21.839  0.331E+00  0.573E-01  0.137E+00  0.137E+00
 21.849  0.332E+00  0.578E-01  0.137E+00  0.137E+00
 21.859  0.334E+00  0.585E-01  0.138E+00  0.138E+00
 21.869  0.336E+00  0.594E-01  0.138E+00  0.138E+00
 21.879  0.338E+00  0.604E-01  0.139E+00  0.139E+00
 21.889  0.340E+00  0.615E-01  0.139E+00  0.139E+00
 21.899  0.342E+00  0.628E-01  0.140E+00  0.140E+00
 21.909  0.345E+00  0.641E-01  0.140E+00  0.140E+00
 21.919  0.347E+00  0.654E-01  0.141E+00  0.141E+00
 21.929  0.349E+00  0.669E-01  0.141E+00  0.141E+00
 21.939  0.351E+00  0.683E-01  0.141E+00  0.141E+00
 21.949  0.353E+00  0.697E-01  0.141E+00  0.141E+00
 21.959  0.354E+00  0.711E-01  0.141E+00  0.141E+00
 21.969  0.355E+00  0.724E-01  0.141E+00  0.141E+00
 21.979  0.356E+00  0.738E-01  0.141E+00  0.141E+00
 21.989  0.356E+00  0.750E-01  0.141E+00  0.141E+00
 21.999  0.356E+00  0.763E-01  0.140E+00  0.140E+00
 22.009  0.356E+00  0.774E-01  0.140E+00  0.140E+00
 22.019  0.356E+00  0.786E-01  0.139E+00  0.139E+00
 22.029  0.357E+00  0.797E-01  0.138E+00  0.138E+00
 22.039  0.357E+00  0.809E-01  0.138E+00  0.138E+00
 22.049  0.357E+00  0.821E-01  0.137E+00  0.137E+00
 22.059  0.357E+00  0.833E-01  0.137E+00  0.137E+00
 22.069  0.358E+00  0.846E-01  0.137E+00  0.137E+00
 22.079  0.360E+00  0.860E-01  0.137E+00  0.137E+00
 22.089  0.361E+00  0.875E-01  0.137E+00  0.137E+00
 22.099  0.364E+00  0.892E-01  0.137E+00  0.137E+00
 22.109  0.366E+00  0.910E-01  0.138E+00  0.138E+00
 22.119  0.370E+00  0.929E-01  0.138E+00  0.138E+00
 22.129  0.374E+00  0.951E-01  0.139E+00  0.139E+00
 22.139  0.378E+00  0.974E-01  0.140E+00  0.140E+00
 22.149  0.383E+00  0.100E+00  0.142E+00  0.142E+00
 22.159  0.389E+00  0.103E+00  0.143E+00  0.143E+00
 22.169  0.395E+00  0.106E+00  0.145E+00  0.145E+00
 22.179  0.401E+00  0.109E+00  0.146E+00  0.146E+00
 22.189  0.408E+00  0.112E+00  0.148E+00  0.148E+00
 22.199  0.415E+00  0.115E+00  0.150E+00  0.150E+00
 22.209  0.422E+00  0.118E+00  0.152E+00  0.152E+00
 22.219  0.429E+00  0.122E+00  0.154E+00  0.154E+00
 22.229  0.435E+00  0.125E+00  0.155E+00  0.155E+00
 22.239  0.442E+00  0.128E+00  0.157E+00  0.157E+00
 22.249  0.447E+00  0.131E+00  0.158E+00  0.158E+00
 22.259  0.453E+00  0.135E+00  0.159E+00  0.159E+00
 22.269  0.457E+00  0.137E+00  0.160E+00  0.160E+00
 22.279  0.461E+00  0.140E+00  0.160E+00  0.160E+00
 22.289  0.464E+00  0.143E+00  0.161E+00  0.161E+00
 22.299  0.466E+00  0.145E+00  0.160E+00  0.160E+00
 22.309  0.467E+00  0.147E+00  0.160E+00  0.160E+00
 22.319  0.468E+00  0.149E+00  0.159E+00  0.159E+00
 22.329  0.467E+00  0.150E+00  0.158E+00  0.158E+00
 22.339  0.466E+00  0.151E+00  0.157E+00  0.157E+00
 22.349  0.463E+00  0.152E+00  0.156E+00  0.156E+00
 22.359  0.460E+00  0.152E+00  0.154E+00  0.154E+00
 22.369  0.457E+00  0.152E+00  0.152E+00  0.152E+00
 22.379  0.452E+00  0.152E+00  0.150E+00  0.150E+00
 22.389  0.447E+00  0.151E+00  0.148E+00  0.148E+00
 22.399  0.441E+00  0.150E+00  0.146E+00  0.146E+00
 22.409  0.435E+00  0.148E+00  0.143E+00  0.143E+00
 22.419  0.428E+00  0.146E+00  0.141E+00  0.141E+00
 22.429  0.420E+00  0.144E+00  0.138E+00  0.138E+00
 22.439  0.412E+00  0.141E+00  0.135E+00  0.135E+00
 22.449  0.403E+00  0.138E+00  0.132E+00  0.132E+00
 22.459  0.393E+00  0.135E+00  0.129E+00  0.129E+00
 22.469  0.384E+00  0.131E+00  0.126E+00  0.126E+00
 22.479  0.374E+00  0.128E+00  0.123E+00  0.123E+00
 22.489  0.363E+00  0.124E+00  0.119E+00  0.119E+00
 22.499  0.352E+00  0.120E+00  0.116E+00  0.116E+00
 22.509  0.341E+00  0.116E+00  0.113E+00  0.113E+00
 22.519  0.330E+00  0.112E+00  0.109E+00  0.109E+00
 22.529  0.319E+00  0.108E+00  0.105E+00  0.105E+00
 22.539  0.308E+00  0.105E+00  0.102E+00  0.102E+00
 22.549  0.298E+00  0.101E+00  0.983E-01  0.983E-01
 22.559  0.287E+00  0.972E-01  0.949E-01  0.949E-01
 22.569  0.277E+00  0.938E-01  0.915E-01  0.915E-01
 22.579  0.267E+00  0.904E-01  0.882E-01  0.882E-01
 22.589  0.257E+00  0.873E-01  0.850E-01  0.850E-01
 22.599  0.248E+00  0.843E-01  0.820E-01  0.820E-01
 22.609  0.239E+00  0.815E-01  0.790E-01  0.790E-01
 22.619  0.231E+00  0.788E-01  0.762E-01  0.762E-01
 22.629  0.223E+00  0.762E-01  0.735E-01  0.735E-01
 22.639  0.215E+00  0.737E-01  0.709E-01  0.709E-01
 22.649  0.208E+00  0.713E-01  0.684E-01  0.684E-01
 22.659  0.201E+00  0.690E-01  0.659E-01  0.659E-01
 22.669  0.194E+00  0.667E-01  0.635E-01  0.635E-01
 22.679  0.187E+00  0.644E-01  0.612E-01  0.612E-01
 22.689  0.180E+00  0.622E-01  0.588E-01  0.588E-01
 22.699  0.173E+00  0.599E-01  0.565E-01  0.565E-01
 22.709  0.166E+00  0.576E-01  0.542E-01  0.542E-01
 22.719  0.159E+00  0.553E-01  0.519E-01  0.519E-01
 22.729  0.152E+00  0.530E-01  0.495E-01  0.495E-01
 22.739  0.145E+00  0.507E-01  0.472E-01  0.472E-01
 22.749  0.138E+00  0.483E-01  0.448E-01  0.448E-01
 22.759  0.131E+00  0.460E-01  0.425E-01  0.425E-01
 22.769  0.124E+00  0.437E-01  0.401E-01  0.401E-01
 22.779  0.117E+00  0.414E-01  0.378E-01  0.378E-01
 22.789  0.110E+00  0.392E-01  0.355E-01  0.355E-01
 22.799  0.103E+00  0.370E-01  0.332E-01  0.332E-01
 22.809  0.968E-01  0.349E-01  0.310E-01  0.310E-01
 22.819  0.904E-01  0.328E-01  0.288E-01  0.288E-01
 22.829  0.842E-01  0.308E-01  0.267E-01  0.267E-01
 22.839  0.783E-01  0.288E-01  0.247E-01  0.247E-01
 22.849  0.726E-01  0.270E-01  0.228E-01  0.228E-01
 22.859  0.672E-01  0.251E-01  0.210E-01  0.210E-01
 22.869  0.620E-01  0.234E-01  0.193E-01  0.193E-01
 22.879  0.572E-01  0.217E-01  0.177E-01  0.177E-01
 22.889  0.526E-01  0.201E-01  0.162E-01  0.162E-01
 22.899  0.483E-01  0.186E-01  0.148E-01  0.148E-01
 22.909  0.443E-01  0.171E-01  0.136E-01  0.136E-01
 22.919  0.405E-01  0.157E-01  0.124E-01  0.124E-01
 22.929  0.370E-01  0.144E-01  0.113E-01  0.113E-01
 22.939  0.338E-01  0.131E-01  0.103E-01  0.103E-01
 22.949  0.307E-01  0.119E-01  0.944E-02  0.944E-02
 22.959  0.280E-01  0.107E-01  0.864E-02  0.864E-02
 22.969  0.254E-01  0.960E-02  0.791E-02  0.791E-02
 22.979  0.231E-01  0.856E-02  0.725E-02  0.725E-02
 22.989  0.209E-01  0.759E-02  0.666E-02  0.666E-02
 22.999  0.190E-01  0.668E-02  0.614E-02  0.614E-02
 23.009  0.172E-01  0.585E-02  0.566E-02  0.566E-02
 23.019  0.156E-01  0.508E-02  0.524E-02  0.524E-02
 23.029  0.141E-01  0.438E-02  0.486E-02  0.486E-02
 23.039  0.128E-01  0.375E-02  0.451E-02  0.451E-02
 23.049  0.116E-01  0.318E-02  0.421E-02  0.421E-02
 23.059  0.105E-01  0.268E-02  0.393E-02  0.393E-02
 23.069  0.958E-02  0.223E-02  0.367E-02  0.367E-02
 23.079  0.874E-02  0.185E-02  0.344E-02  0.344E-02
 23.089  0.798E-02  0.152E-02  0.323E-02  0.323E-02
 23.099  0.730E-02  0.123E-02  0.303E-02  0.303E-02
 23.109  0.668E-02  0.994E-03  0.284E-02  0.284E-02
 23.119  0.613E-02  0.794E-03  0.267E-02  0.267E-02
 23.129  0.562E-02  0.628E-03  0.250E-02  0.250E-02
 23.139  0.515E-02  0.492E-03  0.233E-02  0.233E-02
 23.149  0.472E-02  0.381E-03  0.217E-02  0.217E-02
 23.159  0.431E-02  0.293E-03  0.201E-02  0.201E-02
 23.169  0.393E-02  0.223E-03  0.186E-02  0.186E-02
 23.179  0.357E-02  0.168E-03  0.170E-02  0.170E-02
 23.189  0.324E-02  0.125E-03  0.155E-02  0.155E-02
 23.199  0.291E-02  0.925E-04  0.141E-02  0.141E-02
 23.209  0.261E-02  0.676E-04  0.127E-02  0.127E-02
 23.219  0.232E-02  0.489E-04  0.114E-02  0.114E-02
 23.229  0.205E-02  0.350E-04  0.101E-02  0.101E-02
 23.239  0.180E-02  0.248E-04  0.887E-03  0.887E-03
 23.249  0.157E-02  0.174E-04  0.774E-03  0.774E-03
 23.259  0.135E-02  0.121E-04  0.669E-03  0.669E-03
 23.269  0.116E-02  0.831E-05  0.574E-03  0.574E-03
 23.279  0.980E-03  0.565E-05  0.487E-03  0.487E-03
 23.289  0.824E-03  0.381E-05  0.410E-03  0.410E-03
 23.299  0.686E-03  0.254E-05  0.342E-03  0.342E-03
 23.309  0.566E-03  0.167E-05  0.282E-03  0.282E-03
 23.319  0.462E-03  0.109E-05  0.230E-03  0.230E-03
 23.329  0.374E-03  0.705E-06  0.186E-03  0.186E-03
 23.339  0.299E-03  0.451E-06  0.149E-03  0.149E-03
 23.349  0.237E-03  0.286E-06  0.118E-03  0.118E-03
 23.359  0.186E-03  0.179E-06  0.928E-04  0.928E-04
 23.369  0.144E-03  0.111E-06  0.721E-04  0.721E-04
 23.379  0.111E-03  0.684E-07  0.554E-04  0.554E-04
 23.389  0.843E-04  0.416E-07  0.421E-04  0.421E-04
 23.399  0.634E-04  0.251E-07  0.317E-04  0.317E-04
 23.409  0.472E-04  0.150E-07  0.236E-04  0.236E-04
 23.419  0.348E-04  0.892E-08  0.174E-04  0.174E-04
 23.429  0.254E-04  0.525E-08  0.127E-04  0.127E-04
 23.439  0.183E-04  0.307E-08  0.915E-05  0.915E-05
 23.449  0.131E-04  0.178E-08  0.653E-05  0.653E-05
 23.459  0.923E-05  0.103E-08  0.461E-05  0.461E-05
 23.469  0.645E-05  0.592E-09  0.322E-05  0.322E-05
 23.479  0.446E-05  0.339E-09  0.223E-05  0.223E-05
 23.489  0.305E-05  0.194E-09  0.152E-05  0.152E-05
 23.499  0.206E-05  0.110E-09  0.103E-05  0.103E-05
 23.509  0.138E-05  0.630E-10  0.690E-06  0.690E-06
 23.519  0.914E-06  0.360E-10  0.457E-06  0.457E-06
 23.529  0.599E-06  0.205E-10  0.299E-06  0.299E-06
 23.539  0.388E-06  0.118E-10  0.194E-06  0.194E-06
 23.549  0.249E-06  0.676E-11  0.124E-06  0.124E-06
