# E (eV)   ldos(E)   pdos(E)    pdos(E)    pdos(E)   
 -6.851  0.348E-09  0.135E-09  0.107E-09  0.107E-09
 -6.841  0.566E-09  0.219E-09  0.174E-09  0.174E-09
 -6.831  0.911E-09  0.352E-09  0.280E-09  0.280E-09
 -6.821  0.145E-08  0.560E-09  0.446E-09  0.446E-09
 -6.811  0.229E-08  0.884E-09  0.704E-09  0.704E-09
 -6.801  0.358E-08  0.138E-08  0.110E-08  0.110E-08
 -6.791  0.554E-08  0.214E-08  0.170E-08  0.170E-08
 -6.781  0.849E-08  0.327E-08  0.261E-08  0.261E-08
 -6.771  0.129E-07  0.497E-08  0.396E-08  0.396E-08
 -6.761  0.194E-07  0.746E-08  0.596E-08  0.596E-08
 -6.751  0.289E-07  0.111E-07  0.888E-08  0.888E-08
 -6.741  0.426E-07  0.164E-07  0.131E-07  0.131E-07
 -6.731  0.622E-07  0.239E-07  0.191E-07  0.191E-07
 -6.721  0.900E-07  0.346E-07  0.277E-07  0.277E-07
 -6.711  0.129E-06  0.496E-07  0.397E-07  0.397E-07
 -6.701  0.183E-06  0.705E-07  0.565E-07  0.565E-07
 -6.691  0.258E-06  0.991E-07  0.795E-07  0.795E-07
 -6.681  0.360E-06  0.138E-06  0.111E-06  0.111E-06
 -6.671  0.497E-06  0.191E-06  0.153E-06  0.153E-06
 -6.661  0.681E-06  0.261E-06  0.210E-06  0.210E-06
 -6.651  0.924E-06  0.355E-06  0.285E-06  0.285E-06
 -6.641  0.124E-05  0.477E-06  0.383E-06  0.383E-06
 -6.631  0.166E-05  0.635E-06  0.511E-06  0.511E-06
 -6.621  0.219E-05  0.840E-06  0.675E-06  0.675E-06
 -6.611  0.287E-05  0.110E-05  0.884E-06  0.884E-06
 -6.601  0.372E-05  0.143E-05  0.115E-05  0.115E-05
 -6.591  0.480E-05  0.184E-05  0.148E-05  0.148E-05
 -6.581  0.612E-05  0.235E-05  0.189E-05  0.189E-05
 -6.571  0.775E-05  0.297E-05  0.239E-05  0.239E-05
 -6.561  0.974E-05  0.373E-05  0.300E-05  0.300E-05
 -6.551  0.121E-04  0.465E-05  0.374E-05  0.374E-05
 -6.541  0.150E-04  0.574E-05  0.463E-05  0.463E-05
 -6.531  0.184E-04  0.704E-05  0.567E-05  0.567E-05
 -6.521  0.224E-04  0.857E-05  0.690E-05  0.690E-05
 -6.511  0.270E-04  0.103E-04  0.833E-05  0.833E-05
 -6.501  0.324E-04  0.124E-04  0.999E-05  0.999E-05
 -6.491  0.385E-04  0.147E-04  0.119E-04  0.119E-04
 -6.481  0.455E-04  0.174E-04  0.140E-04  0.140E-04
 -6.471  0.533E-04  0.204E-04  0.165E-04  0.165E-04
 -6.461  0.621E-04  0.238E-04  0.192E-04  0.192E-04
 -6.451  0.719E-04  0.275E-04  0.222E-04  0.222E-04
 -6.441  0.826E-04  0.317E-04  0.255E-04  0.255E-04
 -6.431  0.944E-04  0.362E-04  0.291E-04  0.291E-04
 -6.421  0.107E-03  0.411E-04  0.330E-04  0.330E-04
 -6.411  0.121E-03  0.463E-04  0.373E-04  0.373E-04
 -6.401  0.136E-03  0.520E-04  0.418E-04  0.418E-04
 -6.391  0.151E-03  0.580E-04  0.466E-04  0.466E-04
 -6.381  0.168E-03  0.644E-04  0.517E-04  0.517E-04
 -6.371  0.185E-03  0.711E-04  0.570E-04  0.570E-04
 -6.361  0.203E-03  0.781E-04  0.626E-04  0.626E-04
 -6.351  0.222E-03  0.853E-04  0.684E-04  0.684E-04
 -6.341  0.242E-03  0.929E-04  0.743E-04  0.743E-04
 -6.331  0.262E-03  0.101E-03  0.805E-04  0.805E-04
 -6.321  0.282E-03  0.108E-03  0.867E-04  0.867E-04
 -6.311  0.303E-03  0.117E-03  0.931E-04  0.931E-04
 -6.301  0.324E-03  0.125E-03  0.995E-04  0.995E-04
 -6.291  0.345E-03  0.133E-03  0.106E-03  0.106E-03
 -6.281  0.366E-03  0.141E-03  0.113E-03  0.113E-03
 -6.271  0.388E-03  0.150E-03  0.119E-03  0.119E-03
 -6.261  0.409E-03  0.158E-03  0.126E-03  0.126E-03
 -6.251  0.430E-03  0.166E-03  0.132E-03  0.132E-03
 -6.241  0.451E-03  0.175E-03  0.138E-03  0.138E-03
 -6.231  0.472E-03  0.183E-03  0.145E-03  0.145E-03
 -6.221  0.493E-03  0.191E-03  0.151E-03  0.151E-03
 -6.211  0.513E-03  0.199E-03  0.157E-03  0.157E-03
 -6.201  0.533E-03  0.207E-03  0.163E-03  0.163E-03
 -6.191  0.553E-03  0.215E-03  0.169E-03  0.169E-03
 -6.181  0.572E-03  0.222E-03  0.175E-03  0.175E-03
 -6.171  0.591E-03  0.230E-03  0.180E-03  0.180E-03
 -6.161  0.609E-03  0.237E-03  0.186E-03  0.186E-03
 -6.151  0.627E-03  0.244E-03  0.191E-03  0.191E-03
 -6.141  0.644E-03  0.251E-03  0.197E-03  0.197E-03
 -6.131  0.661E-03  0.258E-03  0.202E-03  0.202E-03
 -6.121  0.678E-03  0.265E-03  0.207E-03  0.207E-03
 -6.111  0.694E-03  0.271E-03  0.211E-03  0.211E-03
 -6.101  0.710E-03  0.278E-03  0.216E-03  0.216E-03
 -6.091  0.726E-03  0.284E-03  0.221E-03  0.221E-03
 -6.081  0.741E-03  0.290E-03  0.225E-03  0.225E-03
 -6.071  0.756E-03  0.296E-03  0.230E-03  0.230E-03
 -6.061  0.770E-03  0.302E-03  0.234E-03  0.234E-03
 -6.051  0.785E-03  0.308E-03  0.238E-03  0.238E-03
 -6.041  0.799E-03  0.314E-03  0.242E-03  0.242E-03
 -6.031  0.813E-03  0.320E-03  0.247E-03  0.247E-03
 -6.021  0.827E-03  0.326E-03  0.251E-03  0.251E-03
 -6.011  0.842E-03  0.331E-03  0.255E-03  0.255E-03
 -6.001  0.856E-03  0.337E-03  0.259E-03  0.259E-03
 -5.991  0.871E-03  0.344E-03  0.264E-03  0.264E-03
 -5.981  0.886E-03  0.350E-03  0.268E-03  0.268E-03
 -5.971  0.902E-03  0.356E-03  0.273E-03  0.273E-03
 -5.961  0.918E-03  0.363E-03  0.277E-03  0.277E-03
 -5.951  0.936E-03  0.371E-03  0.283E-03  0.283E-03
 -5.941  0.955E-03  0.379E-03  0.288E-03  0.288E-03
 -5.931  0.975E-03  0.388E-03  0.294E-03  0.294E-03
 -5.921  0.997E-03  0.397E-03  0.300E-03  0.300E-03
 -5.911  0.102E-02  0.408E-03  0.307E-03  0.307E-03
 -5.901  0.105E-02  0.420E-03  0.314E-03  0.314E-03
 -5.891  0.108E-02  0.433E-03  0.322E-03  0.322E-03
 -5.881  0.111E-02  0.448E-03  0.331E-03  0.331E-03
 -5.871  0.115E-02  0.465E-03  0.341E-03  0.341E-03
 -5.861  0.119E-02  0.484E-03  0.352E-03  0.352E-03
 -5.851  0.123E-02  0.505E-03  0.364E-03  0.364E-03
 -5.841  0.129E-02  0.530E-03  0.378E-03  0.378E-03
 -5.831  0.134E-02  0.558E-03  0.393E-03  0.393E-03
 -5.821  0.141E-02  0.589E-03  0.410E-03  0.410E-03
 -5.811  0.148E-02  0.624E-03  0.429E-03  0.429E-03
 -5.801  0.156E-02  0.663E-03  0.450E-03  0.450E-03
 -5.791  0.165E-02  0.707E-03  0.474E-03  0.474E-03
 -5.781  0.175E-02  0.755E-03  0.500E-03  0.500E-03
 -5.771  0.186E-02  0.808E-03  0.528E-03  0.528E-03
 -5.761  0.198E-02  0.865E-03  0.560E-03  0.560E-03
 -5.751  0.212E-02  0.926E-03  0.594E-03  0.594E-03
 -5.741  0.226E-02  0.992E-03  0.632E-03  0.632E-03
 -5.731  0.241E-02  0.106E-02  0.672E-03  0.672E-03
 -5.721  0.257E-02  0.113E-02  0.716E-03  0.716E-03
 -5.711  0.274E-02  0.121E-02  0.763E-03  0.763E-03
 -5.701  0.291E-02  0.129E-02  0.812E-03  0.812E-03
 -5.691  0.309E-02  0.136E-02  0.864E-03  0.864E-03
 -5.681  0.328E-02  0.144E-02  0.919E-03  0.919E-03
 -5.671  0.346E-02  0.151E-02  0.975E-03  0.975E-03
 -5.661  0.365E-02  0.158E-02  0.103E-02  0.103E-02
 -5.651  0.383E-02  0.165E-02  0.109E-02  0.109E-02
 -5.641  0.401E-02  0.171E-02  0.115E-02  0.115E-02
 -5.631  0.418E-02  0.176E-02  0.121E-02  0.121E-02
 -5.621  0.433E-02  0.180E-02  0.126E-02  0.126E-02
 -5.611  0.447E-02  0.184E-02  0.132E-02  0.132E-02
 -5.601  0.459E-02  0.186E-02  0.137E-02  0.137E-02
 -5.591  0.469E-02  0.187E-02  0.141E-02  0.141E-02
 -5.581  0.476E-02  0.186E-02  0.145E-02  0.145E-02
 -5.571  0.481E-02  0.185E-02  0.148E-02  0.148E-02
 -5.561  0.482E-02  0.182E-02  0.150E-02  0.150E-02
 -5.551  0.481E-02  0.178E-02  0.151E-02  0.151E-02
 -5.541  0.477E-02  0.173E-02  0.152E-02  0.152E-02
 -5.531  0.469E-02  0.167E-02  0.151E-02  0.151E-02
 -5.521  0.459E-02  0.160E-02  0.150E-02  0.150E-02
 -5.511  0.445E-02  0.152E-02  0.147E-02  0.147E-02
 -5.501  0.429E-02  0.143E-02  0.143E-02  0.143E-02
 -5.491  0.411E-02  0.134E-02  0.138E-02  0.138E-02
 -5.481  0.390E-02  0.125E-02  0.133E-02  0.133E-02
 -5.471  0.367E-02  0.115E-02  0.126E-02  0.126E-02
 -5.461  0.343E-02  0.105E-02  0.119E-02  0.119E-02
 -5.451  0.318E-02  0.952E-03  0.111E-02  0.111E-02
 -5.441  0.292E-02  0.857E-03  0.103E-02  0.103E-02
 -5.431  0.267E-02  0.765E-03  0.951E-03  0.951E-03
 -5.421  0.241E-02  0.678E-03  0.866E-03  0.866E-03
 -5.411  0.216E-02  0.595E-03  0.783E-03  0.783E-03
 -5.401  0.192E-02  0.518E-03  0.700E-03  0.700E-03
 -5.391  0.169E-02  0.448E-03  0.621E-03  0.621E-03
 -5.381  0.147E-02  0.383E-03  0.546E-03  0.546E-03
 -5.371  0.127E-02  0.325E-03  0.475E-03  0.475E-03
 -5.361  0.109E-02  0.274E-03  0.409E-03  0.409E-03
 -5.351  0.927E-03  0.228E-03  0.349E-03  0.349E-03
 -5.341  0.780E-03  0.189E-03  0.295E-03  0.295E-03
 -5.331  0.649E-03  0.155E-03  0.247E-03  0.247E-03
 -5.321  0.536E-03  0.126E-03  0.205E-03  0.205E-03
 -5.311  0.438E-03  0.101E-03  0.168E-03  0.168E-03
 -5.301  0.354E-03  0.805E-04  0.137E-03  0.137E-03
 -5.291  0.284E-03  0.636E-04  0.110E-03  0.110E-03
 -5.281  0.225E-03  0.498E-04  0.877E-04  0.877E-04
 -5.271  0.177E-03  0.386E-04  0.692E-04  0.692E-04
 -5.261  0.138E-03  0.296E-04  0.540E-04  0.540E-04
 -5.251  0.106E-03  0.225E-04  0.417E-04  0.417E-04
 -5.241  0.808E-04  0.170E-04  0.319E-04  0.319E-04
 -5.231  0.610E-04  0.127E-04  0.242E-04  0.242E-04
 -5.221  0.456E-04  0.936E-05  0.181E-04  0.181E-04
 -5.211  0.337E-04  0.685E-05  0.134E-04  0.134E-04
 -5.201  0.247E-04  0.496E-05  0.987E-05  0.987E-05
 -5.191  0.179E-04  0.356E-05  0.717E-05  0.717E-05
 -5.181  0.128E-04  0.253E-05  0.516E-05  0.516E-05
 -5.171  0.912E-05  0.178E-05  0.367E-05  0.367E-05
 -5.161  0.641E-05  0.124E-05  0.259E-05  0.259E-05
 -5.151  0.446E-05  0.855E-06  0.180E-05  0.180E-05
 -5.141  0.307E-05  0.584E-06  0.124E-05  0.124E-05
 -5.131  0.209E-05  0.394E-06  0.849E-06  0.849E-06
 -5.121  0.141E-05  0.264E-06  0.573E-06  0.573E-06
 -5.111  0.941E-06  0.175E-06  0.383E-06  0.383E-06
 -5.101  0.622E-06  0.115E-06  0.253E-06  0.253E-06
 -5.091  0.406E-06  0.744E-07  0.166E-06  0.166E-06
 -5.081  0.263E-06  0.478E-07  0.107E-06  0.107E-06
 -5.071  0.168E-06  0.304E-07  0.689E-07  0.689E-07
 -5.061  0.106E-06  0.191E-07  0.437E-07  0.437E-07
 -5.051  0.667E-07  0.119E-07  0.274E-07  0.274E-07
 -5.041  0.414E-07  0.734E-08  0.170E-07  0.170E-07
 -5.031  0.254E-07  0.448E-08  0.105E-07  0.105E-07
 -5.021  0.154E-07  0.271E-08  0.636E-08  0.636E-08
 -5.011  0.927E-08  0.162E-08  0.382E-08  0.382E-08
 -5.001  0.551E-08  0.957E-09  0.228E-08  0.228E-08
 -4.991  0.324E-08  0.560E-09  0.134E-08  0.134E-08
 -4.981  0.189E-08  0.324E-09  0.781E-09  0.781E-09
 -4.971  0.109E-08  0.186E-09  0.450E-09  0.450E-09
 -4.961  0.619E-09  0.106E-09  0.257E-09  0.257E-09
 -4.951  0.349E-09  0.593E-10  0.145E-09  0.145E-09
 -4.941  0.195E-09  0.329E-10  0.810E-10  0.810E-10
 -4.931  0.108E-09  0.181E-10  0.447E-10  0.447E-10
 -4.921  0.588E-10  0.985E-11  0.245E-10  0.245E-10
 -4.911  0.318E-10  0.530E-11  0.132E-10  0.132E-10
 -4.901  0.170E-10  0.282E-11  0.708E-11  0.708E-11
 -4.891  0.898E-11  0.149E-11  0.375E-11  0.375E-11
 -4.881  0.470E-11  0.776E-12  0.196E-11  0.196E-11
 -4.871  0.243E-11  0.400E-12  0.102E-11  0.102E-11
 -4.861  0.125E-11  0.204E-12  0.521E-12  0.521E-12
 -4.851  0.632E-12  0.103E-12  0.264E-12  0.264E-12
 -4.841  0.316E-12  0.512E-13  0.132E-12  0.132E-12
 -4.831  0.156E-12  0.250E-13  0.655E-13  0.655E-13
 -4.821  0.819E-13  0.174E-13  0.322E-13  0.322E-13
 -4.811  0.724E-13  0.295E-13  0.215E-13  0.215E-13
 -4.801  0.193E-12  0.784E-13  0.571E-13  0.571E-13
 -4.791  0.545E-12  0.192E-12  0.177E-12  0.177E-12
 -4.781  0.130E-11  0.433E-12  0.434E-12  0.434E-12
 -4.771  0.300E-11  0.973E-12  0.101E-11  0.101E-11
 -4.761  0.669E-11  0.221E-11  0.224E-11  0.224E-11
 -4.751  0.140E-10  0.459E-11  0.470E-11  0.470E-11
 -4.741  0.285E-10  0.929E-11  0.958E-11  0.958E-11
 -4.731  0.570E-10  0.185E-10  0.192E-10  0.192E-10
 -4.721  0.112E-09  0.365E-10  0.380E-10  0.380E-10
 -4.711  0.219E-09  0.709E-10  0.743E-10  0.743E-10
 -4.701  0.423E-09  0.136E-09  0.144E-09  0.144E-09
 -4.691  0.809E-09  0.259E-09  0.275E-09  0.275E-09
 -4.681  0.153E-08  0.488E-09  0.520E-09  0.520E-09
 -4.671  0.286E-08  0.911E-09  0.974E-09  0.974E-09
 -4.661  0.529E-08  0.168E-08  0.180E-08  0.180E-08
 -4.651  0.969E-08  0.307E-08  0.331E-08  0.331E-08
 -4.641  0.176E-07  0.555E-08  0.601E-08  0.601E-08
 -4.631  0.315E-07  0.993E-08  0.108E-07  0.108E-07
 -4.621  0.560E-07  0.176E-07  0.192E-07  0.192E-07
 -4.611  0.985E-07  0.309E-07  0.338E-07  0.338E-07
 -4.601  0.171E-06  0.536E-07  0.589E-07  0.589E-07
 -4.591  0.295E-06  0.921E-07  0.102E-06  0.102E-06
 -4.581  0.503E-06  0.157E-06  0.173E-06  0.173E-06
 -4.571  0.849E-06  0.264E-06  0.292E-06  0.292E-06
 -4.561  0.142E-05  0.440E-06  0.489E-06  0.489E-06
 -4.551  0.234E-05  0.727E-06  0.808E-06  0.808E-06
 -4.541  0.384E-05  0.119E-05  0.132E-05  0.132E-05
 -4.531  0.621E-05  0.192E-05  0.214E-05  0.214E-05
 -4.521  0.996E-05  0.308E-05  0.344E-05  0.344E-05
 -4.511  0.158E-04  0.488E-05  0.546E-05  0.546E-05
 -4.501  0.248E-04  0.767E-05  0.858E-05  0.858E-05
 -4.491  0.386E-04  0.119E-04  0.133E-04  0.133E-04
 -4.481  0.594E-04  0.184E-04  0.205E-04  0.205E-04
 -4.471  0.906E-04  0.280E-04  0.313E-04  0.313E-04
 -4.461  0.137E-03  0.422E-04  0.472E-04  0.472E-04
 -4.451  0.204E-03  0.630E-04  0.705E-04  0.705E-04
 -4.441  0.302E-03  0.932E-04  0.104E-03  0.104E-03
 -4.431  0.441E-03  0.137E-03  0.152E-03  0.152E-03
 -4.421  0.639E-03  0.198E-03  0.221E-03  0.221E-03
 -4.411  0.917E-03  0.284E-03  0.316E-03  0.316E-03
 -4.401  0.130E-02  0.404E-03  0.449E-03  0.449E-03
 -4.391  0.183E-02  0.568E-03  0.631E-03  0.631E-03
 -4.381  0.255E-02  0.792E-03  0.878E-03  0.878E-03
 -4.371  0.351E-02  0.109E-02  0.121E-02  0.121E-02
 -4.361  0.479E-02  0.149E-02  0.165E-02  0.165E-02
 -4.351  0.646E-02  0.202E-02  0.222E-02  0.222E-02
 -4.341  0.864E-02  0.270E-02  0.297E-02  0.297E-02
 -4.331  0.114E-01  0.359E-02  0.393E-02  0.393E-02
 -4.321  0.150E-01  0.471E-02  0.514E-02  0.514E-02
 -4.311  0.195E-01  0.613E-02  0.667E-02  0.667E-02
 -4.301  0.250E-01  0.789E-02  0.856E-02  0.856E-02
 -4.291  0.318E-01  0.101E-01  0.109E-01  0.109E-01
 -4.281  0.401E-01  0.127E-01  0.137E-01  0.137E-01
 -4.271  0.501E-01  0.159E-01  0.171E-01  0.171E-01
 -4.261  0.619E-01  0.197E-01  0.211E-01  0.211E-01
 -4.251  0.757E-01  0.242E-01  0.258E-01  0.258E-01
 -4.241  0.918E-01  0.294E-01  0.312E-01  0.312E-01
 -4.231  0.110E+00  0.354E-01  0.374E-01  0.374E-01
 -4.221  0.131E+00  0.422E-01  0.444E-01  0.444E-01
 -4.211  0.154E+00  0.498E-01  0.523E-01  0.523E-01
 -4.201  0.180E+00  0.582E-01  0.609E-01  0.609E-01
 -4.191  0.208E+00  0.675E-01  0.703E-01  0.703E-01
 -4.181  0.238E+00  0.774E-01  0.803E-01  0.803E-01
 -4.171  0.270E+00  0.880E-01  0.910E-01  0.910E-01
 -4.161  0.303E+00  0.992E-01  0.102E+00  0.102E+00
 -4.151  0.338E+00  0.111E+00  0.114E+00  0.114E+00
 -4.141  0.373E+00  0.122E+00  0.125E+00  0.125E+00
 -4.131  0.408E+00  0.134E+00  0.137E+00  0.137E+00
 -4.121  0.442E+00  0.146E+00  0.148E+00  0.148E+00
 -4.111  0.474E+00  0.157E+00  0.159E+00  0.159E+00
 -4.101  0.505E+00  0.167E+00  0.169E+00  0.169E+00
 -4.091  0.533E+00  0.177E+00  0.178E+00  0.178E+00
 -4.081  0.559E+00  0.186E+00  0.186E+00  0.186E+00
 -4.071  0.580E+00  0.193E+00  0.193E+00  0.193E+00
 -4.061  0.597E+00  0.199E+00  0.199E+00  0.199E+00
 -4.051  0.610E+00  0.204E+00  0.203E+00  0.203E+00
 -4.041  0.619E+00  0.207E+00  0.206E+00  0.206E+00
 -4.031  0.623E+00  0.208E+00  0.207E+00  0.207E+00
 -4.021  0.622E+00  0.208E+00  0.207E+00  0.207E+00
 -4.011  0.617E+00  0.206E+00  0.205E+00  0.205E+00
 -4.001  0.607E+00  0.203E+00  0.202E+00  0.202E+00
 -3.991  0.594E+00  0.198E+00  0.198E+00  0.198E+00
 -3.981  0.577E+00  0.193E+00  0.192E+00  0.192E+00
 -3.971  0.557E+00  0.186E+00  0.186E+00  0.186E+00
 -3.961  0.535E+00  0.178E+00  0.179E+00  0.179E+00
 -3.951  0.510E+00  0.169E+00  0.171E+00  0.171E+00
 -3.941  0.484E+00  0.160E+00  0.162E+00  0.162E+00
 -3.931  0.457E+00  0.151E+00  0.153E+00  0.153E+00
 -3.921  0.429E+00  0.141E+00  0.144E+00  0.144E+00
 -3.911  0.401E+00  0.132E+00  0.135E+00  0.135E+00
 -3.901  0.373E+00  0.122E+00  0.125E+00  0.125E+00
 -3.891  0.345E+00  0.113E+00  0.116E+00  0.116E+00
 -3.881  0.318E+00  0.104E+00  0.107E+00  0.107E+00
 -3.871  0.292E+00  0.947E-01  0.987E-01  0.987E-01
 -3.861  0.267E+00  0.862E-01  0.903E-01  0.903E-01
 -3.851  0.243E+00  0.782E-01  0.823E-01  0.823E-01
 -3.841  0.220E+00  0.707E-01  0.748E-01  0.748E-01
 -3.831  0.199E+00  0.637E-01  0.677E-01  0.677E-01
 -3.821  0.179E+00  0.572E-01  0.610E-01  0.610E-01
 -3.811  0.161E+00  0.512E-01  0.548E-01  0.548E-01
 -3.801  0.144E+00  0.457E-01  0.491E-01  0.491E-01
 -3.791  0.129E+00  0.407E-01  0.439E-01  0.439E-01
 -3.781  0.114E+00  0.362E-01  0.391E-01  0.391E-01
 -3.771  0.102E+00  0.322E-01  0.348E-01  0.348E-01
 -3.761  0.905E-01  0.286E-01  0.310E-01  0.310E-01
 -3.751  0.805E-01  0.254E-01  0.275E-01  0.275E-01
 -3.741  0.716E-01  0.226E-01  0.245E-01  0.245E-01
 -3.731  0.639E-01  0.202E-01  0.218E-01  0.218E-01
 -3.721  0.571E-01  0.181E-01  0.195E-01  0.195E-01
 -3.711  0.513E-01  0.162E-01  0.175E-01  0.175E-01
 -3.701  0.464E-01  0.147E-01  0.158E-01  0.158E-01
 -3.691  0.422E-01  0.134E-01  0.144E-01  0.144E-01
 -3.681  0.387E-01  0.123E-01  0.132E-01  0.132E-01
 -3.671  0.358E-01  0.115E-01  0.122E-01  0.122E-01
 -3.661  0.335E-01  0.107E-01  0.114E-01  0.114E-01
 -3.651  0.315E-01  0.102E-01  0.107E-01  0.107E-01
 -3.641  0.300E-01  0.969E-02  0.102E-01  0.102E-01
 -3.631  0.288E-01  0.932E-02  0.973E-02  0.973E-02
 -3.621  0.278E-01  0.904E-02  0.940E-02  0.940E-02
 -3.611  0.271E-01  0.883E-02  0.914E-02  0.914E-02
 -3.601  0.266E-01  0.868E-02  0.894E-02  0.894E-02
 -3.591  0.261E-01  0.857E-02  0.879E-02  0.879E-02
 -3.581  0.259E-01  0.849E-02  0.868E-02  0.868E-02
 -3.571  0.257E-01  0.844E-02  0.860E-02  0.860E-02
 -3.561  0.255E-01  0.842E-02  0.855E-02  0.855E-02
 -3.551  0.254E-01  0.841E-02  0.851E-02  0.851E-02
 -3.541  0.254E-01  0.842E-02  0.849E-02  0.849E-02
 -3.531  0.254E-01  0.843E-02  0.849E-02  0.849E-02
 -3.521  0.254E-01  0.846E-02  0.849E-02  0.849E-02
 -3.511  0.255E-01  0.848E-02  0.850E-02  0.850E-02
 -3.501  0.255E-01  0.851E-02  0.851E-02  0.851E-02
 -3.491  0.256E-01  0.854E-02  0.853E-02  0.853E-02
 -3.481  0.257E-01  0.858E-02  0.855E-02  0.855E-02
 -3.471  0.258E-01  0.861E-02  0.858E-02  0.858E-02
 -3.461  0.258E-01  0.864E-02  0.860E-02  0.860E-02
 -3.451  0.259E-01  0.866E-02  0.863E-02  0.863E-02
 -3.441  0.260E-01  0.869E-02  0.865E-02  0.865E-02
 -3.431  0.261E-01  0.871E-02  0.868E-02  0.868E-02
 -3.421  0.261E-01  0.873E-02  0.870E-02  0.870E-02
 -3.411  0.262E-01  0.874E-02  0.871E-02  0.871E-02
 -3.401  0.262E-01  0.876E-02  0.873E-02  0.873E-02
 -3.391  0.262E-01  0.877E-02  0.873E-02  0.873E-02
 -3.381  0.262E-01  0.877E-02  0.874E-02  0.874E-02
 -3.371  0.263E-01  0.878E-02  0.874E-02  0.874E-02
 -3.361  0.262E-01  0.879E-02  0.873E-02  0.873E-02
 -3.351  0.262E-01  0.879E-02  0.872E-02  0.872E-02
 -3.341  0.262E-01  0.879E-02  0.871E-02  0.871E-02
 -3.331  0.262E-01  0.880E-02  0.870E-02  0.870E-02
 -3.321  0.262E-01  0.881E-02  0.870E-02  0.870E-02
 -3.311  0.262E-01  0.881E-02  0.869E-02  0.869E-02
 -3.301  0.262E-01  0.882E-02  0.868E-02  0.868E-02
 -3.291  0.262E-01  0.884E-02  0.868E-02  0.868E-02
 -3.281  0.262E-01  0.885E-02  0.869E-02  0.869E-02
 -3.271  0.263E-01  0.887E-02  0.869E-02  0.869E-02
 -3.261  0.263E-01  0.888E-02  0.871E-02  0.871E-02
 -3.251  0.264E-01  0.890E-02  0.873E-02  0.873E-02
 -3.241  0.264E-01  0.892E-02  0.875E-02  0.875E-02
 -3.231  0.265E-01  0.894E-02  0.877E-02  0.877E-02
 -3.221  0.265E-01  0.895E-02  0.879E-02  0.879E-02
 -3.211  0.266E-01  0.896E-02  0.882E-02  0.882E-02
 -3.201  0.267E-01  0.897E-02  0.884E-02  0.884E-02
 -3.191  0.267E-01  0.898E-02  0.886E-02  0.886E-02
 -3.181  0.267E-01  0.898E-02  0.887E-02  0.887E-02
 -3.171  0.268E-01  0.898E-02  0.888E-02  0.888E-02
 -3.161  0.268E-01  0.898E-02  0.889E-02  0.889E-02
 -3.151  0.267E-01  0.897E-02  0.888E-02  0.888E-02
 -3.141  0.267E-01  0.896E-02  0.887E-02  0.887E-02
 -3.131  0.267E-01  0.895E-02  0.886E-02  0.886E-02
 -3.121  0.266E-01  0.894E-02  0.884E-02  0.884E-02
 -3.111  0.266E-01  0.893E-02  0.882E-02  0.882E-02
 -3.101  0.265E-01  0.892E-02  0.879E-02  0.879E-02
 -3.091  0.264E-01  0.891E-02  0.876E-02  0.876E-02
 -3.081  0.264E-01  0.890E-02  0.874E-02  0.874E-02
 -3.071  0.263E-01  0.890E-02  0.872E-02  0.872E-02
 -3.061  0.263E-01  0.889E-02  0.870E-02  0.870E-02
 -3.051  0.263E-01  0.889E-02  0.868E-02  0.868E-02
 -3.041  0.262E-01  0.889E-02  0.867E-02  0.867E-02
 -3.031  0.262E-01  0.890E-02  0.867E-02  0.867E-02
 -3.021  0.263E-01  0.890E-02  0.867E-02  0.867E-02
 -3.011  0.263E-01  0.891E-02  0.868E-02  0.868E-02
 -3.001  0.263E-01  0.891E-02  0.870E-02  0.870E-02
 -2.991  0.263E-01  0.891E-02  0.872E-02  0.872E-02
 -2.981  0.264E-01  0.891E-02  0.874E-02  0.874E-02
 -2.971  0.264E-01  0.891E-02  0.876E-02  0.876E-02
 -2.961  0.265E-01  0.891E-02  0.878E-02  0.878E-02
 -2.951  0.265E-01  0.891E-02  0.881E-02  0.881E-02
 -2.941  0.265E-01  0.890E-02  0.882E-02  0.882E-02
 -2.931  0.266E-01  0.889E-02  0.884E-02  0.884E-02
 -2.921  0.266E-01  0.888E-02  0.885E-02  0.885E-02
 -2.911  0.266E-01  0.887E-02  0.885E-02  0.885E-02
 -2.901  0.266E-01  0.886E-02  0.885E-02  0.885E-02
 -2.891  0.265E-01  0.885E-02  0.885E-02  0.885E-02
 -2.881  0.265E-01  0.884E-02  0.883E-02  0.883E-02
 -2.871  0.265E-01  0.883E-02  0.882E-02  0.882E-02
 -2.861  0.264E-01  0.882E-02  0.880E-02  0.880E-02
 -2.851  0.264E-01  0.880E-02  0.877E-02  0.877E-02
 -2.841  0.263E-01  0.879E-02  0.875E-02  0.875E-02
 -2.831  0.262E-01  0.878E-02  0.873E-02  0.873E-02
 -2.821  0.262E-01  0.877E-02  0.871E-02  0.871E-02
 -2.811  0.261E-01  0.875E-02  0.869E-02  0.869E-02
 -2.801  0.261E-01  0.874E-02  0.867E-02  0.867E-02
 -2.791  0.261E-01  0.872E-02  0.867E-02  0.867E-02
 -2.781  0.260E-01  0.871E-02  0.866E-02  0.866E-02
 -2.771  0.260E-01  0.869E-02  0.866E-02  0.866E-02
 -2.761  0.260E-01  0.868E-02  0.867E-02  0.867E-02
 -2.751  0.260E-01  0.866E-02  0.868E-02  0.868E-02
 -2.741  0.260E-01  0.865E-02  0.870E-02  0.870E-02
 -2.731  0.261E-01  0.863E-02  0.871E-02  0.871E-02
 -2.721  0.261E-01  0.862E-02  0.873E-02  0.873E-02
 -2.711  0.261E-01  0.860E-02  0.874E-02  0.874E-02
 -2.701  0.261E-01  0.859E-02  0.874E-02  0.874E-02
 -2.691  0.261E-01  0.857E-02  0.874E-02  0.874E-02
 -2.681  0.260E-01  0.856E-02  0.874E-02  0.874E-02
 -2.671  0.260E-01  0.854E-02  0.872E-02  0.872E-02
 -2.661  0.259E-01  0.852E-02  0.869E-02  0.869E-02
 -2.651  0.258E-01  0.850E-02  0.864E-02  0.864E-02
 -2.641  0.257E-01  0.848E-02  0.859E-02  0.859E-02
 -2.631  0.255E-01  0.845E-02  0.852E-02  0.852E-02
 -2.621  0.253E-01  0.842E-02  0.844E-02  0.844E-02
 -2.611  0.251E-01  0.839E-02  0.835E-02  0.835E-02
 -2.601  0.248E-01  0.836E-02  0.824E-02  0.824E-02
 -2.591  0.246E-01  0.832E-02  0.813E-02  0.813E-02
 -2.581  0.243E-01  0.828E-02  0.802E-02  0.802E-02
 -2.571  0.240E-01  0.823E-02  0.789E-02  0.789E-02
 -2.561  0.237E-01  0.819E-02  0.777E-02  0.777E-02
 -2.551  0.234E-01  0.814E-02  0.764E-02  0.764E-02
 -2.541  0.231E-01  0.809E-02  0.751E-02  0.751E-02
 -2.531  0.228E-01  0.803E-02  0.738E-02  0.738E-02
 -2.521  0.225E-01  0.798E-02  0.726E-02  0.726E-02
 -2.511  0.222E-01  0.792E-02  0.713E-02  0.713E-02
 -2.501  0.219E-01  0.786E-02  0.700E-02  0.700E-02
 -2.491  0.215E-01  0.780E-02  0.687E-02  0.687E-02
 -2.481  0.212E-01  0.774E-02  0.674E-02  0.674E-02
 -2.471  0.209E-01  0.767E-02  0.661E-02  0.661E-02
 -2.461  0.206E-01  0.761E-02  0.647E-02  0.647E-02
 -2.451  0.202E-01  0.753E-02  0.634E-02  0.634E-02
 -2.441  0.199E-01  0.746E-02  0.620E-02  0.620E-02
 -2.431  0.195E-01  0.738E-02  0.606E-02  0.606E-02
 -2.421  0.191E-01  0.731E-02  0.592E-02  0.592E-02
 -2.411  0.188E-01  0.722E-02  0.577E-02  0.577E-02
 -2.401  0.184E-01  0.714E-02  0.563E-02  0.563E-02
 -2.391  0.180E-01  0.705E-02  0.548E-02  0.548E-02
 -2.381  0.176E-01  0.696E-02  0.534E-02  0.534E-02
 -2.371  0.173E-01  0.687E-02  0.519E-02  0.519E-02
 -2.361  0.169E-01  0.678E-02  0.505E-02  0.505E-02
 -2.351  0.165E-01  0.668E-02  0.491E-02  0.491E-02
 -2.341  0.161E-01  0.659E-02  0.478E-02  0.478E-02
 -2.331  0.158E-01  0.649E-02  0.465E-02  0.465E-02
 -2.321  0.154E-01  0.639E-02  0.452E-02  0.452E-02
 -2.311  0.151E-01  0.628E-02  0.440E-02  0.440E-02
 -2.301  0.148E-01  0.618E-02  0.429E-02  0.429E-02
 -2.291  0.144E-01  0.607E-02  0.418E-02  0.418E-02
 -2.281  0.141E-01  0.596E-02  0.407E-02  0.407E-02
 -2.271  0.138E-01  0.585E-02  0.398E-02  0.398E-02
 -2.261  0.135E-01  0.573E-02  0.389E-02  0.389E-02
 -2.251  0.132E-01  0.561E-02  0.381E-02  0.381E-02
 -2.241  0.129E-01  0.549E-02  0.373E-02  0.373E-02
 -2.231  0.127E-01  0.536E-02  0.366E-02  0.366E-02
 -2.221  0.124E-01  0.523E-02  0.360E-02  0.360E-02
 -2.211  0.122E-01  0.510E-02  0.354E-02  0.354E-02
 -2.201  0.120E-01  0.497E-02  0.349E-02  0.349E-02
 -2.191  0.117E-01  0.483E-02  0.345E-02  0.345E-02
 -2.181  0.115E-01  0.468E-02  0.342E-02  0.342E-02
 -2.171  0.113E-01  0.454E-02  0.338E-02  0.338E-02
 -2.161  0.111E-01  0.439E-02  0.336E-02  0.336E-02
 -2.151  0.109E-01  0.424E-02  0.333E-02  0.333E-02
 -2.141  0.107E-01  0.408E-02  0.331E-02  0.331E-02
 -2.131  0.105E-01  0.392E-02  0.328E-02  0.328E-02
 -2.121  0.103E-01  0.376E-02  0.326E-02  0.326E-02
 -2.111  0.101E-01  0.359E-02  0.323E-02  0.323E-02
 -2.101  0.983E-02  0.343E-02  0.320E-02  0.320E-02
 -2.091  0.958E-02  0.326E-02  0.316E-02  0.316E-02
 -2.081  0.932E-02  0.309E-02  0.311E-02  0.311E-02
 -2.071  0.904E-02  0.292E-02  0.306E-02  0.306E-02
 -2.061  0.875E-02  0.275E-02  0.300E-02  0.300E-02
 -2.051  0.843E-02  0.258E-02  0.292E-02  0.292E-02
 -2.041  0.810E-02  0.242E-02  0.284E-02  0.284E-02
 -2.031  0.774E-02  0.225E-02  0.275E-02  0.275E-02
 -2.021  0.737E-02  0.209E-02  0.264E-02  0.264E-02
 -2.011  0.699E-02  0.193E-02  0.253E-02  0.253E-02
 -2.001  0.659E-02  0.177E-02  0.241E-02  0.241E-02
 -1.991  0.618E-02  0.162E-02  0.228E-02  0.228E-02
 -1.981  0.577E-02  0.148E-02  0.214E-02  0.214E-02
 -1.971  0.535E-02  0.134E-02  0.200E-02  0.200E-02
 -1.961  0.493E-02  0.121E-02  0.186E-02  0.186E-02
 -1.951  0.452E-02  0.108E-02  0.172E-02  0.172E-02
 -1.941  0.412E-02  0.967E-03  0.158E-02  0.158E-02
 -1.931  0.373E-02  0.858E-03  0.143E-02  0.143E-02
 -1.921  0.335E-02  0.757E-03  0.130E-02  0.130E-02
 -1.911  0.299E-02  0.664E-03  0.116E-02  0.116E-02
 -1.901  0.266E-02  0.579E-03  0.104E-02  0.104E-02
 -1.891  0.234E-02  0.502E-03  0.920E-03  0.920E-03
 -1.881  0.205E-02  0.432E-03  0.808E-03  0.808E-03
 -1.871  0.178E-02  0.369E-03  0.705E-03  0.705E-03
 -1.861  0.154E-02  0.314E-03  0.611E-03  0.611E-03
 -1.851  0.131E-02  0.265E-03  0.525E-03  0.525E-03
 -1.841  0.112E-02  0.222E-03  0.448E-03  0.448E-03
 -1.831  0.943E-03  0.185E-03  0.379E-03  0.379E-03
 -1.821  0.790E-03  0.153E-03  0.319E-03  0.319E-03
 -1.811  0.657E-03  0.125E-03  0.266E-03  0.266E-03
 -1.801  0.542E-03  0.102E-03  0.220E-03  0.220E-03
 -1.791  0.444E-03  0.826E-04  0.181E-03  0.181E-03
 -1.781  0.360E-03  0.663E-04  0.147E-03  0.147E-03
 -1.771  0.290E-03  0.528E-04  0.119E-03  0.119E-03
 -1.761  0.232E-03  0.417E-04  0.952E-04  0.952E-04
 -1.751  0.184E-03  0.327E-04  0.757E-04  0.757E-04
 -1.741  0.145E-03  0.254E-04  0.597E-04  0.597E-04
 -1.731  0.113E-03  0.196E-04  0.467E-04  0.467E-04
 -1.721  0.875E-04  0.150E-04  0.362E-04  0.362E-04
 -1.711  0.671E-04  0.114E-04  0.279E-04  0.279E-04
 -1.701  0.511E-04  0.857E-05  0.213E-04  0.213E-04
 -1.691  0.386E-04  0.639E-05  0.161E-04  0.161E-04
 -1.681  0.289E-04  0.473E-05  0.121E-04  0.121E-04
 -1.671  0.214E-04  0.347E-05  0.897E-05  0.897E-05
 -1.661  0.157E-04  0.252E-05  0.661E-05  0.661E-05
 -1.651  0.115E-04  0.182E-05  0.483E-05  0.483E-05
 -1.641  0.830E-05  0.130E-05  0.350E-05  0.350E-05
 -1.631  0.594E-05  0.921E-06  0.251E-05  0.251E-05
 -1.621  0.422E-05  0.647E-06  0.179E-05  0.179E-05
 -1.611  0.297E-05  0.450E-06  0.126E-05  0.126E-05
 -1.601  0.207E-05  0.310E-06  0.879E-06  0.879E-06
 -1.591  0.143E-05  0.212E-06  0.609E-06  0.609E-06
 -1.581  0.978E-06  0.143E-06  0.417E-06  0.417E-06
 -1.571  0.663E-06  0.962E-07  0.284E-06  0.284E-06
 -1.561  0.446E-06  0.639E-07  0.191E-06  0.191E-06
 -1.551  0.297E-06  0.421E-07  0.127E-06  0.127E-06
 -1.541  0.196E-06  0.274E-07  0.841E-07  0.841E-07
 -1.531  0.128E-06  0.177E-07  0.550E-07  0.550E-07
 -1.521  0.827E-07  0.113E-07  0.357E-07  0.357E-07
 -1.511  0.530E-07  0.718E-08  0.229E-07  0.229E-07
 -1.501  0.336E-07  0.451E-08  0.146E-07  0.146E-07
 -1.491  0.211E-07  0.280E-08  0.916E-08  0.916E-08
 -1.481  0.132E-07  0.173E-08  0.571E-08  0.571E-08
 -1.471  0.811E-08  0.105E-08  0.353E-08  0.353E-08
 -1.461  0.495E-08  0.635E-09  0.216E-08  0.216E-08
 -1.451  0.299E-08  0.380E-09  0.131E-08  0.131E-08
 -1.441  0.179E-08  0.225E-09  0.783E-09  0.783E-09
 -1.431  0.106E-08  0.132E-09  0.465E-09  0.465E-09
 -1.421  0.623E-09  0.764E-10  0.273E-09  0.273E-09
 -1.411  0.362E-09  0.439E-10  0.159E-09  0.159E-09
 -1.401  0.208E-09  0.250E-10  0.916E-10  0.916E-10
 -1.391  0.119E-09  0.141E-10  0.523E-10  0.523E-10
 -1.381  0.669E-10  0.784E-11  0.295E-10  0.295E-10
 -1.371  0.373E-10  0.433E-11  0.165E-10  0.165E-10
 -1.361  0.206E-10  0.236E-11  0.913E-11  0.913E-11
 -1.351  0.113E-10  0.128E-11  0.500E-11  0.500E-11
 -1.341  0.611E-11  0.684E-12  0.271E-11  0.271E-11
 -1.331  0.327E-11  0.362E-12  0.145E-11  0.145E-11
 -1.321  0.173E-11  0.190E-12  0.772E-12  0.772E-12
 -1.311  0.910E-12  0.984E-13  0.406E-12  0.406E-12
 -1.301  0.473E-12  0.505E-13  0.211E-12  0.211E-12
 -1.291  0.242E-12  0.257E-13  0.108E-12  0.108E-12
 -1.281  0.123E-12  0.127E-13  0.552E-13  0.552E-13
 -1.271  0.614E-13  0.625E-14  0.276E-13  0.276E-13
 -1.261  0.303E-13  0.303E-14  0.136E-13  0.136E-13
 -1.251  0.144E-13  0.133E-14  0.652E-14  0.652E-14
 -1.241  0.680E-14  0.634E-15  0.308E-14  0.308E-14
 -1.231  0.312E-14  0.302E-15  0.141E-14  0.141E-14
 -1.221  0.134E-14  0.101E-15  0.621E-15  0.621E-15
 -1.211  0.424E-15  0.371E-17  0.210E-15  0.210E-15
 -1.201  0.157E-15  0.141E-17  0.778E-16  0.778E-16
 -1.191  0.226E-16  0.210E-18  0.112E-16  0.112E-16
 -1.181  0.000E+00  0.000E+00  0.000E+00  0.000E+00
 -1.171  0.000E+00  0.000E+00  0.000E+00  0.000E+00
 -1.161  0.000E+00  0.000E+00  0.000E+00  0.000E+00
 -1.151  0.000E+00  0.000E+00  0.000E+00  0.000E+00
 -1.141  0.000E+00  0.000E+00  0.000E+00  0.000E+00
 -1.131  0.000E+00  0.000E+00  0.000E+00  0.000E+00
 -1.121  0.000E+00  0.000E+00  0.000E+00  0.000E+00
 -1.111  0.000E+00  0.000E+00  0.000E+00  0.000E+00
 -1.101  0.000E+00  0.000E+00  0.000E+00  0.000E+00
 -1.091  0.000E+00  0.000E+00  0.000E+00  0.000E+00
 -1.081  0.000E+00  0.000E+00  0.000E+00  0.000E+00
 -1.071  0.000E+00  0.000E+00  0.000E+00  0.000E+00
 -1.061  0.000E+00  0.000E+00  0.000E+00  0.000E+00
 -1.051  0.000E+00  0.000E+00  0.000E+00  0.000E+00
 -1.041  0.000E+00  0.000E+00  0.000E+00  0.000E+00
 -1.031  0.000E+00  0.000E+00  0.000E+00  0.000E+00
 -1.021  0.000E+00  0.000E+00  0.000E+00  0.000E+00
 -1.011  0.000E+00  0.000E+00  0.000E+00  0.000E+00
 -1.001  0.000E+00  0.000E+00  0.000E+00  0.000E+00
 -0.991  0.000E+00  0.000E+00  0.000E+00  0.000E+00
 -0.981  0.000E+00  0.000E+00  0.000E+00  0.000E+00
 -0.971  0.000E+00  0.000E+00  0.000E+00  0.000E+00
 -0.961  0.000E+00  0.000E+00  0.000E+00  0.000E+00
 -0.951  0.000E+00  0.000E+00  0.000E+00  0.000E+00
 -0.941  0.000E+00  0.000E+00  0.000E+00  0.000E+00
 -0.931  0.000E+00  0.000E+00  0.000E+00  0.000E+00
 -0.921  0.000E+00  0.000E+00  0.000E+00  0.000E+00
 -0.911  0.000E+00  0.000E+00  0.000E+00  0.000E+00
 -0.901  0.000E+00  0.000E+00  0.000E+00  0.000E+00
 -0.891  0.000E+00  0.000E+00  0.000E+00  0.000E+00
 -0.881  0.000E+00  0.000E+00  0.000E+00  0.000E+00
 -0.871  0.000E+00  0.000E+00  0.000E+00  0.000E+00
 -0.861  0.000E+00  0.000E+00  0.000E+00  0.000E+00
 -0.851  0.000E+00  0.000E+00  0.000E+00  0.000E+00
 -0.841  0.000E+00  0.000E+00  0.000E+00  0.000E+00
 -0.831  0.000E+00  0.000E+00  0.000E+00  0.000E+00
 -0.821  0.000E+00  0.000E+00  0.000E+00  0.000E+00
 -0.811  0.000E+00  0.000E+00  0.000E+00  0.000E+00
 -0.801  0.000E+00  0.000E+00  0.000E+00  0.000E+00
 -0.791  0.000E+00  0.000E+00  0.000E+00  0.000E+00
 -0.781  0.000E+00  0.000E+00  0.000E+00  0.000E+00
 -0.771  0.000E+00  0.000E+00  0.000E+00  0.000E+00
 -0.761  0.000E+00  0.000E+00  0.000E+00  0.000E+00
 -0.751  0.000E+00  0.000E+00  0.000E+00  0.000E+00
 -0.741  0.000E+00  0.000E+00  0.000E+00  0.000E+00
 -0.731  0.000E+00  0.000E+00  0.000E+00  0.000E+00
 -0.721  0.000E+00  0.000E+00  0.000E+00  0.000E+00
 -0.711  0.000E+00  0.000E+00  0.000E+00  0.000E+00
 -0.701  0.000E+00  0.000E+00  0.000E+00  0.000E+00
 -0.691  0.000E+00  0.000E+00  0.000E+00  0.000E+00
 -0.681  0.000E+00  0.000E+00  0.000E+00  0.000E+00
 -0.671  0.000E+00  0.000E+00  0.000E+00  0.000E+00
 -0.661  0.000E+00  0.000E+00  0.000E+00  0.000E+00
 -0.651  0.000E+00  0.000E+00  0.000E+00  0.000E+00
 -0.641  0.000E+00  0.000E+00  0.000E+00  0.000E+00
 -0.631  0.000E+00  0.000E+00  0.000E+00  0.000E+00
 -0.621  0.000E+00  0.000E+00  0.000E+00  0.000E+00
 -0.611  0.000E+00  0.000E+00  0.000E+00  0.000E+00
 -0.601  0.000E+00  0.000E+00  0.000E+00  0.000E+00
 -0.591  0.000E+00  0.000E+00  0.000E+00  0.000E+00
 -0.581  0.000E+00  0.000E+00  0.000E+00  0.000E+00
 -0.571  0.000E+00  0.000E+00  0.000E+00  0.000E+00
 -0.561  0.000E+00  0.000E+00  0.000E+00  0.000E+00
 -0.551  0.000E+00  0.000E+00  0.000E+00  0.000E+00
 -0.541  0.000E+00  0.000E+00  0.000E+00  0.000E+00
 -0.531  0.000E+00  0.000E+00  0.000E+00  0.000E+00
 -0.521  0.000E+00  0.000E+00  0.000E+00  0.000E+00
 -0.511  0.000E+00  0.000E+00  0.000E+00  0.000E+00
 -0.501  0.000E+00  0.000E+00  0.000E+00  0.000E+00
 -0.491  0.000E+00  0.000E+00  0.000E+00  0.000E+00
 -0.481  0.000E+00  0.000E+00  0.000E+00  0.000E+00
 -0.471  0.000E+00  0.000E+00  0.000E+00  0.000E+00
 -0.461  0.000E+00  0.000E+00  0.000E+00  0.000E+00
 -0.451  0.000E+00  0.000E+00  0.000E+00  0.000E+00
 -0.441  0.000E+00  0.000E+00  0.000E+00  0.000E+00
 -0.431  0.000E+00  0.000E+00  0.000E+00  0.000E+00
 -0.421  0.000E+00  0.000E+00  0.000E+00  0.000E+00
 -0.411  0.000E+00  0.000E+00  0.000E+00  0.000E+00
 -0.401  0.000E+00  0.000E+00  0.000E+00  0.000E+00
 -0.391  0.000E+00  0.000E+00  0.000E+00  0.000E+00
 -0.381  0.000E+00  0.000E+00  0.000E+00  0.000E+00
 -0.371  0.000E+00  0.000E+00  0.000E+00  0.000E+00
 -0.361  0.000E+00  0.000E+00  0.000E+00  0.000E+00
 -0.351  0.000E+00  0.000E+00  0.000E+00  0.000E+00
 -0.341  0.000E+00  0.000E+00  0.000E+00  0.000E+00
 -0.331  0.000E+00  0.000E+00  0.000E+00  0.000E+00
 -0.321  0.000E+00  0.000E+00  0.000E+00  0.000E+00
 -0.311  0.000E+00  0.000E+00  0.000E+00  0.000E+00
 -0.301  0.000E+00  0.000E+00  0.000E+00  0.000E+00
 -0.291  0.000E+00  0.000E+00  0.000E+00  0.000E+00
 -0.281  0.000E+00  0.000E+00  0.000E+00  0.000E+00
 -0.271  0.000E+00  0.000E+00  0.000E+00  0.000E+00
 -0.261  0.000E+00  0.000E+00  0.000E+00  0.000E+00
 -0.251  0.000E+00  0.000E+00  0.000E+00  0.000E+00
 -0.241  0.000E+00  0.000E+00  0.000E+00  0.000E+00
 -0.231  0.000E+00  0.000E+00  0.000E+00  0.000E+00
 -0.221  0.000E+00  0.000E+00  0.000E+00  0.000E+00
 -0.211  0.000E+00  0.000E+00  0.000E+00  0.000E+00
 -0.201  0.000E+00  0.000E+00  0.000E+00  0.000E+00
 -0.191  0.000E+00  0.000E+00  0.000E+00  0.000E+00
 -0.181  0.000E+00  0.000E+00  0.000E+00  0.000E+00
 -0.171  0.000E+00  0.000E+00  0.000E+00  0.000E+00
 -0.161  0.000E+00  0.000E+00  0.000E+00  0.000E+00
 -0.151  0.000E+00  0.000E+00  0.000E+00  0.000E+00
 -0.141  0.000E+00  0.000E+00  0.000E+00  0.000E+00
 -0.131  0.000E+00  0.000E+00  0.000E+00  0.000E+00
 -0.121  0.000E+00  0.000E+00  0.000E+00  0.000E+00
 -0.111  0.000E+00  0.000E+00  0.000E+00  0.000E+00
 -0.101  0.000E+00  0.000E+00  0.000E+00  0.000E+00
 -0.091  0.000E+00  0.000E+00  0.000E+00  0.000E+00
 -0.081  0.000E+00  0.000E+00  0.000E+00  0.000E+00
 -0.071  0.000E+00  0.000E+00  0.000E+00  0.000E+00
 -0.061  0.000E+00  0.000E+00  0.000E+00  0.000E+00
 -0.051  0.000E+00  0.000E+00  0.000E+00  0.000E+00
 -0.041  0.000E+00  0.000E+00  0.000E+00  0.000E+00
 -0.031  0.000E+00  0.000E+00  0.000E+00  0.000E+00
 -0.021  0.000E+00  0.000E+00  0.000E+00  0.000E+00
 -0.011  0.000E+00  0.000E+00  0.000E+00  0.000E+00
 -0.001  0.000E+00  0.000E+00  0.000E+00  0.000E+00
  0.009  0.000E+00  0.000E+00  0.000E+00  0.000E+00
  0.019  0.000E+00  0.000E+00  0.000E+00  0.000E+00
  0.029  0.000E+00  0.000E+00  0.000E+00  0.000E+00
  0.039  0.000E+00  0.000E+00  0.000E+00  0.000E+00
  0.049  0.000E+00  0.000E+00  0.000E+00  0.000E+00
  0.059  0.000E+00  0.000E+00  0.000E+00  0.000E+00
  0.069  0.000E+00  0.000E+00  0.000E+00  0.000E+00
  0.079  0.000E+00  0.000E+00  0.000E+00  0.000E+00
  0.089  0.000E+00  0.000E+00  0.000E+00  0.000E+00
  0.099  0.000E+00  0.000E+00  0.000E+00  0.000E+00
  0.109  0.000E+00  0.000E+00  0.000E+00  0.000E+00
  0.119  0.000E+00  0.000E+00  0.000E+00  0.000E+00
  0.129  0.000E+00  0.000E+00  0.000E+00  0.000E+00
  0.139  0.000E+00  0.000E+00  0.000E+00  0.000E+00
  0.149  0.000E+00  0.000E+00  0.000E+00  0.000E+00
  0.159  0.000E+00  0.000E+00  0.000E+00  0.000E+00
  0.169  0.000E+00  0.000E+00  0.000E+00  0.000E+00
  0.179  0.000E+00  0.000E+00  0.000E+00  0.000E+00
  0.189  0.000E+00  0.000E+00  0.000E+00  0.000E+00
  0.199  0.000E+00  0.000E+00  0.000E+00  0.000E+00
  0.209  0.000E+00  0.000E+00  0.000E+00  0.000E+00
  0.219  0.000E+00  0.000E+00  0.000E+00  0.000E+00
  0.229  0.000E+00  0.000E+00  0.000E+00  0.000E+00
  0.239  0.000E+00  0.000E+00  0.000E+00  0.000E+00
  0.249  0.000E+00  0.000E+00  0.000E+00  0.000E+00
  0.259  0.000E+00  0.000E+00  0.000E+00  0.000E+00
  0.269  0.000E+00  0.000E+00  0.000E+00  0.000E+00
  0.279  0.000E+00  0.000E+00  0.000E+00  0.000E+00
  0.289  0.000E+00  0.000E+00  0.000E+00  0.000E+00
  0.299  0.000E+00  0.000E+00  0.000E+00  0.000E+00
  0.309  0.000E+00  0.000E+00  0.000E+00  0.000E+00
  0.319  0.000E+00  0.000E+00  0.000E+00  0.000E+00
  0.329  0.000E+00  0.000E+00  0.000E+00  0.000E+00
  0.339  0.000E+00  0.000E+00  0.000E+00  0.000E+00
  0.349  0.000E+00  0.000E+00  0.000E+00  0.000E+00
  0.359  0.000E+00  0.000E+00  0.000E+00  0.000E+00
  0.369  0.000E+00  0.000E+00  0.000E+00  0.000E+00
  0.379  0.000E+00  0.000E+00  0.000E+00  0.000E+00
  0.389  0.000E+00  0.000E+00  0.000E+00  0.000E+00
  0.399  0.000E+00  0.000E+00  0.000E+00  0.000E+00
  0.409  0.000E+00  0.000E+00  0.000E+00  0.000E+00
  0.419  0.000E+00  0.000E+00  0.000E+00  0.000E+00
  0.429  0.000E+00  0.000E+00  0.000E+00  0.000E+00
  0.439  0.000E+00  0.000E+00  0.000E+00  0.000E+00
  0.449  0.000E+00  0.000E+00  0.000E+00  0.000E+00
  0.459  0.000E+00  0.000E+00  0.000E+00  0.000E+00
  0.469  0.000E+00  0.000E+00  0.000E+00  0.000E+00
  0.479  0.000E+00  0.000E+00  0.000E+00  0.000E+00
  0.489  0.000E+00  0.000E+00  0.000E+00  0.000E+00
  0.499  0.000E+00  0.000E+00  0.000E+00  0.000E+00
  0.509  0.000E+00  0.000E+00  0.000E+00  0.000E+00
  0.519  0.000E+00  0.000E+00  0.000E+00  0.000E+00
  0.529  0.000E+00  0.000E+00  0.000E+00  0.000E+00
  0.539  0.000E+00  0.000E+00  0.000E+00  0.000E+00
  0.549  0.000E+00  0.000E+00  0.000E+00  0.000E+00
  0.559  0.000E+00  0.000E+00  0.000E+00  0.000E+00
  0.569  0.000E+00  0.000E+00  0.000E+00  0.000E+00
  0.579  0.000E+00  0.000E+00  0.000E+00  0.000E+00
  0.589  0.000E+00  0.000E+00  0.000E+00  0.000E+00
  0.599  0.000E+00  0.000E+00  0.000E+00  0.000E+00
  0.609  0.000E+00  0.000E+00  0.000E+00  0.000E+00
  0.619  0.000E+00  0.000E+00  0.000E+00  0.000E+00
  0.629  0.000E+00  0.000E+00  0.000E+00  0.000E+00
  0.639  0.000E+00  0.000E+00  0.000E+00  0.000E+00
  0.649  0.000E+00  0.000E+00  0.000E+00  0.000E+00
  0.659  0.000E+00  0.000E+00  0.000E+00  0.000E+00
  0.669  0.000E+00  0.000E+00  0.000E+00  0.000E+00
  0.679  0.000E+00  0.000E+00  0.000E+00  0.000E+00
  0.689  0.000E+00  0.000E+00  0.000E+00  0.000E+00
  0.699  0.000E+00  0.000E+00  0.000E+00  0.000E+00
  0.709  0.000E+00  0.000E+00  0.000E+00  0.000E+00
  0.719  0.000E+00  0.000E+00  0.000E+00  0.000E+00
  0.729  0.000E+00  0.000E+00  0.000E+00  0.000E+00
  0.739  0.000E+00  0.000E+00  0.000E+00  0.000E+00
  0.749  0.000E+00  0.000E+00  0.000E+00  0.000E+00
  0.759  0.000E+00  0.000E+00  0.000E+00  0.000E+00
  0.769  0.000E+00  0.000E+00  0.000E+00  0.000E+00
  0.779  0.000E+00  0.000E+00  0.000E+00  0.000E+00
  0.789  0.000E+00  0.000E+00  0.000E+00  0.000E+00
  0.799  0.000E+00  0.000E+00  0.000E+00  0.000E+00
  0.809  0.000E+00  0.000E+00  0.000E+00  0.000E+00
  0.819  0.000E+00  0.000E+00  0.000E+00  0.000E+00
  0.829  0.000E+00  0.000E+00  0.000E+00  0.000E+00
  0.839  0.000E+00  0.000E+00  0.000E+00  0.000E+00
  0.849  0.000E+00  0.000E+00  0.000E+00  0.000E+00
  0.859  0.000E+00  0.000E+00  0.000E+00  0.000E+00
  0.869  0.000E+00  0.000E+00  0.000E+00  0.000E+00
  0.879  0.000E+00  0.000E+00  0.000E+00  0.000E+00
  0.889  0.000E+00  0.000E+00  0.000E+00  0.000E+00
  0.899  0.000E+00  0.000E+00  0.000E+00  0.000E+00
  0.909  0.000E+00  0.000E+00  0.000E+00  0.000E+00
  0.919  0.000E+00  0.000E+00  0.000E+00  0.000E+00
  0.929  0.000E+00  0.000E+00  0.000E+00  0.000E+00
  0.939  0.000E+00  0.000E+00  0.000E+00  0.000E+00
  0.949  0.000E+00  0.000E+00  0.000E+00  0.000E+00
  0.959  0.000E+00  0.000E+00  0.000E+00  0.000E+00
  0.969  0.000E+00  0.000E+00  0.000E+00  0.000E+00
  0.979  0.000E+00  0.000E+00  0.000E+00  0.000E+00
  0.989  0.000E+00  0.000E+00  0.000E+00  0.000E+00
  0.999  0.000E+00  0.000E+00  0.000E+00  0.000E+00
  1.009  0.000E+00  0.000E+00  0.000E+00  0.000E+00
  1.019  0.000E+00  0.000E+00  0.000E+00  0.000E+00
  1.029  0.000E+00  0.000E+00  0.000E+00  0.000E+00
  1.039  0.000E+00  0.000E+00  0.000E+00  0.000E+00
  1.049  0.000E+00  0.000E+00  0.000E+00  0.000E+00
  1.059  0.000E+00  0.000E+00  0.000E+00  0.000E+00
  1.069  0.000E+00  0.000E+00  0.000E+00  0.000E+00
  1.079  0.000E+00  0.000E+00  0.000E+00  0.000E+00
  1.089  0.000E+00  0.000E+00  0.000E+00  0.000E+00
  1.099  0.000E+00  0.000E+00  0.000E+00  0.000E+00
  1.109  0.000E+00  0.000E+00  0.000E+00  0.000E+00
  1.119  0.000E+00  0.000E+00  0.000E+00  0.000E+00
  1.129  0.000E+00  0.000E+00  0.000E+00  0.000E+00
  1.139  0.000E+00  0.000E+00  0.000E+00  0.000E+00
  1.149  0.000E+00  0.000E+00  0.000E+00  0.000E+00
  1.159  0.000E+00  0.000E+00  0.000E+00  0.000E+00
  1.169  0.000E+00  0.000E+00  0.000E+00  0.000E+00
  1.179  0.000E+00  0.000E+00  0.000E+00  0.000E+00
  1.189  0.000E+00  0.000E+00  0.000E+00  0.000E+00
  1.199  0.000E+00  0.000E+00  0.000E+00  0.000E+00
  1.209  0.000E+00  0.000E+00  0.000E+00  0.000E+00
  1.219  0.000E+00  0.000E+00  0.000E+00  0.000E+00
  1.229  0.000E+00  0.000E+00  0.000E+00  0.000E+00
  1.239  0.000E+00  0.000E+00  0.000E+00  0.000E+00
  1.249  0.000E+00  0.000E+00  0.000E+00  0.000E+00
  1.259  0.000E+00  0.000E+00  0.000E+00  0.000E+00
  1.269  0.000E+00  0.000E+00  0.000E+00  0.000E+00
  1.279  0.000E+00  0.000E+00  0.000E+00  0.000E+00
  1.289  0.000E+00  0.000E+00  0.000E+00  0.000E+00
  1.299  0.000E+00  0.000E+00  0.000E+00  0.000E+00
  1.309  0.000E+00  0.000E+00  0.000E+00  0.000E+00
  1.319  0.000E+00  0.000E+00  0.000E+00  0.000E+00
  1.329  0.000E+00  0.000E+00  0.000E+00  0.000E+00
  1.339  0.000E+00  0.000E+00  0.000E+00  0.000E+00
  1.349  0.000E+00  0.000E+00  0.000E+00  0.000E+00
  1.359  0.000E+00  0.000E+00  0.000E+00  0.000E+00
  1.369  0.000E+00  0.000E+00  0.000E+00  0.000E+00
  1.379  0.000E+00  0.000E+00  0.000E+00  0.000E+00
  1.389  0.000E+00  0.000E+00  0.000E+00  0.000E+00
  1.399  0.000E+00  0.000E+00  0.000E+00  0.000E+00
  1.409  0.000E+00  0.000E+00  0.000E+00  0.000E+00
  1.419  0.000E+00  0.000E+00  0.000E+00  0.000E+00
  1.429  0.000E+00  0.000E+00  0.000E+00  0.000E+00
  1.439  0.000E+00  0.000E+00  0.000E+00  0.000E+00
  1.449  0.000E+00  0.000E+00  0.000E+00  0.000E+00
  1.459  0.000E+00  0.000E+00  0.000E+00  0.000E+00
  1.469  0.000E+00  0.000E+00  0.000E+00  0.000E+00
  1.479  0.000E+00  0.000E+00  0.000E+00  0.000E+00
  1.489  0.000E+00  0.000E+00  0.000E+00  0.000E+00
  1.499  0.000E+00  0.000E+00  0.000E+00  0.000E+00
  1.509  0.000E+00  0.000E+00  0.000E+00  0.000E+00
  1.519  0.000E+00  0.000E+00  0.000E+00  0.000E+00
  1.529  0.000E+00  0.000E+00  0.000E+00  0.000E+00
  1.539  0.000E+00  0.000E+00  0.000E+00  0.000E+00
  1.549  0.000E+00  0.000E+00  0.000E+00  0.000E+00
  1.559  0.000E+00  0.000E+00  0.000E+00  0.000E+00
  1.569  0.000E+00  0.000E+00  0.000E+00  0.000E+00
  1.579  0.000E+00  0.000E+00  0.000E+00  0.000E+00
  1.589  0.000E+00  0.000E+00  0.000E+00  0.000E+00
  1.599  0.000E+00  0.000E+00  0.000E+00  0.000E+00
  1.609  0.000E+00  0.000E+00  0.000E+00  0.000E+00
  1.619  0.000E+00  0.000E+00  0.000E+00  0.000E+00
  1.629  0.000E+00  0.000E+00  0.000E+00  0.000E+00
  1.639  0.000E+00  0.000E+00  0.000E+00  0.000E+00
  1.649  0.000E+00  0.000E+00  0.000E+00  0.000E+00
  1.659  0.000E+00  0.000E+00  0.000E+00  0.000E+00
  1.669  0.000E+00  0.000E+00  0.000E+00  0.000E+00
  1.679  0.000E+00  0.000E+00  0.000E+00  0.000E+00
  1.689  0.000E+00  0.000E+00  0.000E+00  0.000E+00
  1.699  0.000E+00  0.000E+00  0.000E+00  0.000E+00
  1.709  0.000E+00  0.000E+00  0.000E+00  0.000E+00
  1.719  0.000E+00  0.000E+00  0.000E+00  0.000E+00
  1.729  0.000E+00  0.000E+00  0.000E+00  0.000E+00
  1.739  0.000E+00  0.000E+00  0.000E+00  0.000E+00
  1.749  0.367E-14  0.367E-14  0.404E-26  0.404E-26
  1.759  0.766E-14  0.766E-14  0.842E-26  0.842E-26
  1.769  0.158E-13  0.158E-13  0.174E-25  0.174E-25
  1.779  0.519E-13  0.518E-13  0.108E-16  0.108E-16
  1.789  0.106E-12  0.106E-12  0.226E-16  0.226E-16
  1.799  0.215E-12  0.215E-12  0.466E-16  0.466E-16
  1.809  0.430E-12  0.430E-12  0.954E-16  0.954E-16
  1.819  0.852E-12  0.852E-12  0.193E-15  0.193E-15
  1.829  0.167E-11  0.167E-11  0.386E-15  0.386E-15
  1.839  0.326E-11  0.326E-11  0.791E-15  0.791E-15
  1.849  0.627E-11  0.626E-11  0.155E-14  0.155E-14
  1.859  0.119E-10  0.119E-10  0.302E-14  0.302E-14
  1.869  0.224E-10  0.224E-10  0.583E-14  0.583E-14
  1.879  0.418E-10  0.418E-10  0.111E-13  0.111E-13
  1.889  0.770E-10  0.770E-10  0.209E-13  0.209E-13
  1.899  0.140E-09  0.140E-09  0.390E-13  0.390E-13
  1.909  0.254E-09  0.253E-09  0.718E-13  0.718E-13
  1.919  0.453E-09  0.453E-09  0.131E-12  0.131E-12
  1.929  0.800E-09  0.800E-09  0.237E-12  0.237E-12
  1.939  0.140E-08  0.140E-08  0.423E-12  0.423E-12
  1.949  0.242E-08  0.242E-08  0.748E-12  0.748E-12
  1.959  0.415E-08  0.415E-08  0.131E-11  0.131E-11
  1.969  0.705E-08  0.704E-08  0.227E-11  0.227E-11
  1.979  0.118E-07  0.118E-07  0.389E-11  0.389E-11
  1.989  0.196E-07  0.196E-07  0.659E-11  0.659E-11
  1.999  0.323E-07  0.323E-07  0.111E-10  0.111E-10
  2.009  0.526E-07  0.525E-07  0.184E-10  0.184E-10
  2.019  0.847E-07  0.846E-07  0.303E-10  0.303E-10
  2.029  0.135E-06  0.135E-06  0.494E-10  0.494E-10
  2.039  0.213E-06  0.213E-06  0.797E-10  0.797E-10
  2.049  0.333E-06  0.333E-06  0.127E-09  0.127E-09
  2.059  0.515E-06  0.514E-06  0.202E-09  0.202E-09
  2.069  0.788E-06  0.787E-06  0.316E-09  0.316E-09
  2.079  0.119E-05  0.119E-05  0.490E-09  0.490E-09
  2.089  0.179E-05  0.179E-05  0.752E-09  0.752E-09
  2.099  0.266E-05  0.266E-05  0.114E-08  0.114E-08
  2.109  0.391E-05  0.391E-05  0.173E-08  0.173E-08
  2.119  0.569E-05  0.569E-05  0.258E-08  0.258E-08
  2.129  0.821E-05  0.820E-05  0.381E-08  0.381E-08
  2.139  0.117E-04  0.117E-04  0.559E-08  0.559E-08
  2.149  0.166E-04  0.166E-04  0.813E-08  0.813E-08
  2.159  0.232E-04  0.232E-04  0.117E-07  0.117E-07
  2.169  0.322E-04  0.321E-04  0.167E-07  0.167E-07
  2.179  0.442E-04  0.441E-04  0.237E-07  0.237E-07
  2.189  0.601E-04  0.601E-04  0.334E-07  0.334E-07
  2.199  0.810E-04  0.809E-04  0.466E-07  0.466E-07
  2.209  0.108E-03  0.108E-03  0.647E-07  0.647E-07
  2.219  0.143E-03  0.143E-03  0.891E-07  0.891E-07
  2.229  0.188E-03  0.188E-03  0.122E-06  0.122E-06
  2.239  0.244E-03  0.244E-03  0.166E-06  0.166E-06
  2.249  0.314E-03  0.314E-03  0.226E-06  0.226E-06
  2.259  0.402E-03  0.401E-03  0.306E-06  0.306E-06
  2.269  0.509E-03  0.508E-03  0.414E-06  0.414E-06
  2.279  0.638E-03  0.637E-03  0.559E-06  0.559E-06
  2.289  0.795E-03  0.794E-03  0.755E-06  0.755E-06
  2.299  0.982E-03  0.980E-03  0.102E-05  0.102E-05
  2.309  0.120E-02  0.120E-02  0.139E-05  0.139E-05
  2.319  0.146E-02  0.146E-02  0.189E-05  0.189E-05
  2.329  0.177E-02  0.176E-02  0.258E-05  0.258E-05
  2.339  0.212E-02  0.211E-02  0.354E-05  0.354E-05
  2.349  0.252E-02  0.251E-02  0.487E-05  0.487E-05
  2.359  0.297E-02  0.296E-02  0.674E-05  0.674E-05
  2.369  0.348E-02  0.347E-02  0.934E-05  0.934E-05
  2.379  0.406E-02  0.403E-02  0.130E-04  0.130E-04
  2.389  0.470E-02  0.466E-02  0.180E-04  0.180E-04
  2.399  0.541E-02  0.536E-02  0.250E-04  0.250E-04
  2.409  0.619E-02  0.612E-02  0.347E-04  0.347E-04
  2.419  0.704E-02  0.694E-02  0.480E-04  0.480E-04
  2.429  0.796E-02  0.783E-02  0.662E-04  0.662E-04
  2.439  0.896E-02  0.878E-02  0.907E-04  0.907E-04
  2.449  0.100E-01  0.979E-02  0.124E-03  0.124E-03
  2.459  0.112E-01  0.109E-01  0.168E-03  0.168E-03
  2.469  0.124E-01  0.120E-01  0.226E-03  0.226E-03
  2.479  0.137E-01  0.131E-01  0.302E-03  0.302E-03
  2.489  0.152E-01  0.144E-01  0.401E-03  0.401E-03
  2.499  0.167E-01  0.156E-01  0.528E-03  0.528E-03
  2.509  0.183E-01  0.169E-01  0.690E-03  0.690E-03
  2.519  0.200E-01  0.182E-01  0.894E-03  0.894E-03
  2.529  0.218E-01  0.195E-01  0.115E-02  0.115E-02
  2.539  0.238E-01  0.209E-01  0.146E-02  0.146E-02
  2.549  0.259E-01  0.222E-01  0.185E-02  0.185E-02
  2.559  0.282E-01  0.236E-01  0.232E-02  0.232E-02
  2.569  0.307E-01  0.249E-01  0.289E-02  0.289E-02
  2.579  0.334E-01  0.263E-01  0.357E-02  0.357E-02
  2.589  0.364E-01  0.277E-01  0.437E-02  0.437E-02
  2.599  0.397E-01  0.291E-01  0.530E-02  0.530E-02
  2.609  0.433E-01  0.305E-01  0.639E-02  0.639E-02
  2.619  0.472E-01  0.319E-01  0.763E-02  0.763E-02
  2.629  0.515E-01  0.334E-01  0.905E-02  0.905E-02
  2.639  0.562E-01  0.348E-01  0.107E-01  0.107E-01
  2.649  0.613E-01  0.364E-01  0.125E-01  0.125E-01
  2.659  0.668E-01  0.379E-01  0.144E-01  0.144E-01
  2.669  0.729E-01  0.396E-01  0.166E-01  0.166E-01
  2.679  0.794E-01  0.413E-01  0.190E-01  0.190E-01
  2.689  0.863E-01  0.431E-01  0.216E-01  0.216E-01
  2.699  0.938E-01  0.449E-01  0.244E-01  0.244E-01
  2.709  0.102E+00  0.469E-01  0.274E-01  0.274E-01
  2.719  0.110E+00  0.489E-01  0.305E-01  0.305E-01
  2.729  0.119E+00  0.511E-01  0.338E-01  0.338E-01
  2.739  0.128E+00  0.533E-01  0.373E-01  0.373E-01
  2.749  0.137E+00  0.556E-01  0.408E-01  0.408E-01
  2.759  0.147E+00  0.580E-01  0.445E-01  0.445E-01
  2.769  0.157E+00  0.605E-01  0.483E-01  0.483E-01
  2.779  0.167E+00  0.631E-01  0.521E-01  0.521E-01
  2.789  0.178E+00  0.658E-01  0.561E-01  0.561E-01
  2.799  0.188E+00  0.685E-01  0.600E-01  0.600E-01
  2.809  0.199E+00  0.712E-01  0.640E-01  0.640E-01
  2.819  0.210E+00  0.740E-01  0.680E-01  0.680E-01
  2.829  0.221E+00  0.768E-01  0.721E-01  0.721E-01
  2.839  0.232E+00  0.796E-01  0.762E-01  0.762E-01
  2.849  0.243E+00  0.824E-01  0.802E-01  0.802E-01
  2.859  0.254E+00  0.852E-01  0.843E-01  0.843E-01
  2.869  0.265E+00  0.880E-01  0.884E-01  0.884E-01
  2.879  0.276E+00  0.908E-01  0.925E-01  0.925E-01
  2.889  0.287E+00  0.935E-01  0.965E-01  0.965E-01
  2.899  0.297E+00  0.962E-01  0.101E+00  0.101E+00
  2.909  0.308E+00  0.989E-01  0.105E+00  0.105E+00
  2.919  0.319E+00  0.101E+00  0.109E+00  0.109E+00
  2.929  0.329E+00  0.104E+00  0.113E+00  0.113E+00
  2.939  0.340E+00  0.107E+00  0.117E+00  0.117E+00
  2.949  0.350E+00  0.109E+00  0.121E+00  0.121E+00
  2.959  0.360E+00  0.111E+00  0.124E+00  0.124E+00
  2.969  0.370E+00  0.114E+00  0.128E+00  0.128E+00
  2.979  0.380E+00  0.116E+00  0.132E+00  0.132E+00
  2.989  0.389E+00  0.118E+00  0.135E+00  0.135E+00
  2.999  0.399E+00  0.121E+00  0.139E+00  0.139E+00
  3.009  0.408E+00  0.123E+00  0.143E+00  0.143E+00
  3.019  0.417E+00  0.125E+00  0.146E+00  0.146E+00
  3.029  0.426E+00  0.127E+00  0.149E+00  0.149E+00
  3.039  0.435E+00  0.130E+00  0.153E+00  0.153E+00
  3.049  0.444E+00  0.132E+00  0.156E+00  0.156E+00
  3.059  0.453E+00  0.135E+00  0.159E+00  0.159E+00
  3.069  0.463E+00  0.137E+00  0.163E+00  0.163E+00
  3.079  0.472E+00  0.140E+00  0.166E+00  0.166E+00
  3.089  0.482E+00  0.142E+00  0.170E+00  0.170E+00
  3.099  0.492E+00  0.145E+00  0.173E+00  0.173E+00
  3.109  0.502E+00  0.148E+00  0.177E+00  0.177E+00
  3.119  0.512E+00  0.151E+00  0.180E+00  0.180E+00
  3.129  0.523E+00  0.155E+00  0.184E+00  0.184E+00
  3.139  0.534E+00  0.158E+00  0.188E+00  0.188E+00
  3.149  0.545E+00  0.162E+00  0.192E+00  0.192E+00
  3.159  0.556E+00  0.165E+00  0.195E+00  0.195E+00
  3.169  0.567E+00  0.169E+00  0.199E+00  0.199E+00
  3.179  0.578E+00  0.173E+00  0.203E+00  0.203E+00
  3.189  0.589E+00  0.177E+00  0.206E+00  0.206E+00
  3.199  0.600E+00  0.181E+00  0.209E+00  0.209E+00
  3.209  0.611E+00  0.185E+00  0.213E+00  0.213E+00
  3.219  0.621E+00  0.190E+00  0.216E+00  0.216E+00
  3.229  0.631E+00  0.194E+00  0.218E+00  0.218E+00
  3.239  0.641E+00  0.199E+00  0.221E+00  0.221E+00
  3.249  0.650E+00  0.203E+00  0.224E+00  0.224E+00
  3.259  0.659E+00  0.208E+00  0.226E+00  0.226E+00
  3.269  0.668E+00  0.212E+00  0.228E+00  0.228E+00
  3.279  0.676E+00  0.217E+00  0.230E+00  0.230E+00
  3.289  0.684E+00  0.221E+00  0.231E+00  0.231E+00
  3.299  0.691E+00  0.226E+00  0.233E+00  0.233E+00
  3.309  0.698E+00  0.230E+00  0.234E+00  0.234E+00
  3.319  0.705E+00  0.235E+00  0.235E+00  0.235E+00
  3.329  0.712E+00  0.240E+00  0.236E+00  0.236E+00
  3.339  0.718E+00  0.244E+00  0.237E+00  0.237E+00
  3.349  0.723E+00  0.249E+00  0.237E+00  0.237E+00
  3.359  0.729E+00  0.253E+00  0.238E+00  0.238E+00
  3.369  0.734E+00  0.258E+00  0.238E+00  0.238E+00
  3.379  0.738E+00  0.262E+00  0.238E+00  0.238E+00
  3.389  0.742E+00  0.266E+00  0.238E+00  0.238E+00
  3.399  0.745E+00  0.270E+00  0.238E+00  0.238E+00
  3.409  0.748E+00  0.274E+00  0.237E+00  0.237E+00
  3.419  0.750E+00  0.277E+00  0.237E+00  0.237E+00
  3.429  0.752E+00  0.280E+00  0.236E+00  0.236E+00
  3.439  0.753E+00  0.283E+00  0.235E+00  0.235E+00
  3.449  0.753E+00  0.285E+00  0.234E+00  0.234E+00
  3.459  0.752E+00  0.287E+00  0.233E+00  0.233E+00
  3.469  0.751E+00  0.288E+00  0.232E+00  0.232E+00
  3.479  0.749E+00  0.289E+00  0.230E+00  0.230E+00
  3.489  0.746E+00  0.289E+00  0.228E+00  0.228E+00
  3.499  0.741E+00  0.288E+00  0.227E+00  0.227E+00
  3.509  0.736E+00  0.287E+00  0.225E+00  0.225E+00
  3.519  0.730E+00  0.285E+00  0.223E+00  0.223E+00
  3.529  0.723E+00  0.283E+00  0.220E+00  0.220E+00
  3.539  0.715E+00  0.280E+00  0.218E+00  0.218E+00
  3.549  0.706E+00  0.276E+00  0.215E+00  0.215E+00
  3.559  0.697E+00  0.272E+00  0.212E+00  0.212E+00
  3.569  0.686E+00  0.268E+00  0.209E+00  0.209E+00
  3.579  0.674E+00  0.263E+00  0.206E+00  0.206E+00
  3.589  0.662E+00  0.257E+00  0.202E+00  0.202E+00
  3.599  0.648E+00  0.251E+00  0.199E+00  0.199E+00
  3.609  0.635E+00  0.245E+00  0.195E+00  0.195E+00
  3.619  0.621E+00  0.239E+00  0.191E+00  0.191E+00
  3.629  0.606E+00  0.232E+00  0.187E+00  0.187E+00
  3.639  0.591E+00  0.225E+00  0.183E+00  0.183E+00
  3.649  0.576E+00  0.218E+00  0.179E+00  0.179E+00
  3.659  0.562E+00  0.211E+00  0.175E+00  0.175E+00
  3.669  0.547E+00  0.204E+00  0.172E+00  0.172E+00
  3.679  0.532E+00  0.197E+00  0.168E+00  0.168E+00
  3.689  0.518E+00  0.190E+00  0.164E+00  0.164E+00
  3.699  0.505E+00  0.183E+00  0.161E+00  0.161E+00
  3.709  0.492E+00  0.176E+00  0.158E+00  0.158E+00
  3.719  0.479E+00  0.169E+00  0.155E+00  0.155E+00
  3.729  0.467E+00  0.163E+00  0.152E+00  0.152E+00
  3.739  0.456E+00  0.157E+00  0.149E+00  0.149E+00
  3.749  0.445E+00  0.151E+00  0.147E+00  0.147E+00
  3.759  0.435E+00  0.146E+00  0.145E+00  0.145E+00
  3.769  0.426E+00  0.141E+00  0.143E+00  0.143E+00
  3.779  0.417E+00  0.136E+00  0.141E+00  0.141E+00
  3.789  0.410E+00  0.132E+00  0.139E+00  0.139E+00
  3.799  0.402E+00  0.128E+00  0.137E+00  0.137E+00
  3.809  0.396E+00  0.125E+00  0.135E+00  0.135E+00
  3.819  0.391E+00  0.123E+00  0.134E+00  0.134E+00
  3.829  0.386E+00  0.121E+00  0.133E+00  0.133E+00
  3.839  0.382E+00  0.119E+00  0.132E+00  0.132E+00
  3.849  0.379E+00  0.118E+00  0.131E+00  0.131E+00
  3.859  0.377E+00  0.117E+00  0.130E+00  0.130E+00
  3.869  0.376E+00  0.117E+00  0.129E+00  0.129E+00
  3.879  0.376E+00  0.118E+00  0.129E+00  0.129E+00
  3.889  0.377E+00  0.118E+00  0.129E+00  0.129E+00
  3.899  0.379E+00  0.120E+00  0.129E+00  0.129E+00
  3.909  0.381E+00  0.121E+00  0.130E+00  0.130E+00
  3.919  0.384E+00  0.123E+00  0.131E+00  0.131E+00
  3.929  0.388E+00  0.124E+00  0.132E+00  0.132E+00
  3.939  0.392E+00  0.126E+00  0.133E+00  0.133E+00
  3.949  0.396E+00  0.128E+00  0.134E+00  0.134E+00
  3.959  0.401E+00  0.129E+00  0.136E+00  0.136E+00
  3.969  0.406E+00  0.131E+00  0.137E+00  0.137E+00
  3.979  0.410E+00  0.132E+00  0.139E+00  0.139E+00
  3.989  0.414E+00  0.133E+00  0.141E+00  0.141E+00
  3.999  0.417E+00  0.133E+00  0.142E+00  0.142E+00
  4.009  0.420E+00  0.133E+00  0.144E+00  0.144E+00
  4.019  0.422E+00  0.132E+00  0.145E+00  0.145E+00
  4.029  0.424E+00  0.131E+00  0.146E+00  0.146E+00
  4.039  0.424E+00  0.129E+00  0.148E+00  0.148E+00
  4.049  0.424E+00  0.127E+00  0.149E+00  0.149E+00
  4.059  0.423E+00  0.124E+00  0.149E+00  0.149E+00
  4.069  0.420E+00  0.121E+00  0.150E+00  0.150E+00
  4.079  0.417E+00  0.117E+00  0.150E+00  0.150E+00
  4.089  0.414E+00  0.113E+00  0.150E+00  0.150E+00
  4.099  0.410E+00  0.109E+00  0.150E+00  0.150E+00
  4.109  0.405E+00  0.105E+00  0.150E+00  0.150E+00
  4.119  0.400E+00  0.101E+00  0.150E+00  0.150E+00
  4.129  0.394E+00  0.962E-01  0.149E+00  0.149E+00
  4.139  0.389E+00  0.921E-01  0.148E+00  0.148E+00
  4.149  0.383E+00  0.881E-01  0.147E+00  0.147E+00
  4.159  0.377E+00  0.844E-01  0.146E+00  0.146E+00
  4.169  0.371E+00  0.810E-01  0.145E+00  0.145E+00
  4.179  0.366E+00  0.779E-01  0.144E+00  0.144E+00
  4.189  0.360E+00  0.752E-01  0.142E+00  0.142E+00
  4.199  0.354E+00  0.728E-01  0.141E+00  0.141E+00
  4.209  0.349E+00  0.709E-01  0.139E+00  0.139E+00
  4.219  0.343E+00  0.692E-01  0.137E+00  0.137E+00
  4.229  0.338E+00  0.679E-01  0.135E+00  0.135E+00
  4.239  0.333E+00  0.670E-01  0.133E+00  0.133E+00
  4.249  0.327E+00  0.663E-01  0.131E+00  0.131E+00
  4.259  0.322E+00  0.659E-01  0.128E+00  0.128E+00
  4.269  0.317E+00  0.657E-01  0.126E+00  0.126E+00
  4.279  0.313E+00  0.658E-01  0.123E+00  0.123E+00
  4.289  0.308E+00  0.661E-01  0.121E+00  0.121E+00
  4.299  0.304E+00  0.667E-01  0.119E+00  0.119E+00
  4.309  0.300E+00  0.675E-01  0.116E+00  0.116E+00
  4.319  0.297E+00  0.685E-01  0.114E+00  0.114E+00
  4.329  0.294E+00  0.697E-01  0.112E+00  0.112E+00
  4.339  0.291E+00  0.712E-01  0.110E+00  0.110E+00
  4.349  0.290E+00  0.729E-01  0.108E+00  0.108E+00
  4.359  0.289E+00  0.749E-01  0.107E+00  0.107E+00
  4.369  0.288E+00  0.771E-01  0.106E+00  0.106E+00
  4.379  0.288E+00  0.796E-01  0.104E+00  0.104E+00
  4.389  0.289E+00  0.822E-01  0.103E+00  0.103E+00
  4.399  0.291E+00  0.851E-01  0.103E+00  0.103E+00
  4.409  0.292E+00  0.881E-01  0.102E+00  0.102E+00
  4.419  0.295E+00  0.912E-01  0.102E+00  0.102E+00
  4.429  0.297E+00  0.944E-01  0.101E+00  0.101E+00
  4.439  0.300E+00  0.976E-01  0.101E+00  0.101E+00
  4.449  0.302E+00  0.101E+00  0.101E+00  0.101E+00
  4.459  0.304E+00  0.104E+00  0.100E+00  0.100E+00
  4.469  0.306E+00  0.106E+00  0.999E-01  0.999E-01
  4.479  0.307E+00  0.109E+00  0.994E-01  0.994E-01
  4.489  0.308E+00  0.110E+00  0.988E-01  0.988E-01
  4.499  0.308E+00  0.112E+00  0.981E-01  0.981E-01
  4.509  0.307E+00  0.113E+00  0.972E-01  0.972E-01
  4.519  0.306E+00  0.113E+00  0.963E-01  0.963E-01
  4.529  0.304E+00  0.113E+00  0.953E-01  0.953E-01
  4.539  0.301E+00  0.112E+00  0.942E-01  0.942E-01
  4.549  0.297E+00  0.111E+00  0.930E-01  0.930E-01
  4.559  0.293E+00  0.109E+00  0.918E-01  0.918E-01
  4.569  0.288E+00  0.107E+00  0.906E-01  0.906E-01
  4.579  0.283E+00  0.104E+00  0.894E-01  0.894E-01
  4.589  0.277E+00  0.101E+00  0.883E-01  0.883E-01
  4.599  0.272E+00  0.972E-01  0.872E-01  0.872E-01
  4.609  0.266E+00  0.936E-01  0.862E-01  0.862E-01
  4.619  0.261E+00  0.899E-01  0.854E-01  0.854E-01
  4.629  0.256E+00  0.862E-01  0.847E-01  0.847E-01
  4.639  0.251E+00  0.825E-01  0.841E-01  0.841E-01
  4.649  0.246E+00  0.789E-01  0.837E-01  0.837E-01
  4.659  0.242E+00  0.754E-01  0.835E-01  0.835E-01
  4.669  0.239E+00  0.721E-01  0.833E-01  0.833E-01
  4.679  0.236E+00  0.691E-01  0.834E-01  0.834E-01
  4.689  0.233E+00  0.663E-01  0.835E-01  0.835E-01
  4.699  0.231E+00  0.638E-01  0.837E-01  0.837E-01
  4.709  0.230E+00  0.616E-01  0.840E-01  0.840E-01
  4.719  0.228E+00  0.596E-01  0.844E-01  0.844E-01
  4.729  0.227E+00  0.578E-01  0.848E-01  0.848E-01
  4.739  0.227E+00  0.563E-01  0.852E-01  0.852E-01
  4.749  0.226E+00  0.550E-01  0.856E-01  0.856E-01
  4.759  0.226E+00  0.539E-01  0.860E-01  0.860E-01
  4.769  0.226E+00  0.530E-01  0.864E-01  0.864E-01
  4.779  0.226E+00  0.523E-01  0.867E-01  0.867E-01
  4.789  0.226E+00  0.518E-01  0.870E-01  0.870E-01
  4.799  0.226E+00  0.514E-01  0.873E-01  0.873E-01
  4.809  0.226E+00  0.511E-01  0.875E-01  0.875E-01
  4.819  0.226E+00  0.510E-01  0.876E-01  0.876E-01
  4.829  0.227E+00  0.511E-01  0.877E-01  0.877E-01
  4.839  0.227E+00  0.512E-01  0.878E-01  0.878E-01
  4.849  0.227E+00  0.516E-01  0.879E-01  0.879E-01
  4.859  0.228E+00  0.520E-01  0.879E-01  0.879E-01
  4.869  0.229E+00  0.527E-01  0.879E-01  0.879E-01
  4.879  0.229E+00  0.535E-01  0.879E-01  0.879E-01
  4.889  0.230E+00  0.544E-01  0.879E-01  0.879E-01
  4.899  0.231E+00  0.556E-01  0.879E-01  0.879E-01
  4.909  0.233E+00  0.570E-01  0.880E-01  0.880E-01
  4.919  0.235E+00  0.585E-01  0.880E-01  0.880E-01
  4.929  0.236E+00  0.603E-01  0.880E-01  0.880E-01
  4.939  0.239E+00  0.624E-01  0.881E-01  0.881E-01
  4.949  0.241E+00  0.647E-01  0.882E-01  0.882E-01
  4.959  0.244E+00  0.674E-01  0.883E-01  0.883E-01
  4.969  0.247E+00  0.703E-01  0.884E-01  0.884E-01
  4.979  0.251E+00  0.736E-01  0.887E-01  0.887E-01
  4.989  0.255E+00  0.772E-01  0.890E-01  0.890E-01
  4.999  0.260E+00  0.812E-01  0.894E-01  0.894E-01
  5.009  0.265E+00  0.855E-01  0.899E-01  0.899E-01
  5.019  0.271E+00  0.901E-01  0.905E-01  0.905E-01
  5.029  0.278E+00  0.952E-01  0.914E-01  0.914E-01
  5.039  0.285E+00  0.100E+00  0.924E-01  0.924E-01
  5.049  0.293E+00  0.106E+00  0.935E-01  0.935E-01
  5.059  0.302E+00  0.112E+00  0.949E-01  0.949E-01
  5.069  0.311E+00  0.118E+00  0.966E-01  0.966E-01
  5.079  0.321E+00  0.124E+00  0.984E-01  0.984E-01
  5.089  0.332E+00  0.131E+00  0.100E+00  0.100E+00
  5.099  0.343E+00  0.137E+00  0.103E+00  0.103E+00
  5.109  0.354E+00  0.144E+00  0.105E+00  0.105E+00
  5.119  0.366E+00  0.150E+00  0.108E+00  0.108E+00
  5.129  0.377E+00  0.156E+00  0.111E+00  0.111E+00
  5.139  0.389E+00  0.162E+00  0.114E+00  0.114E+00
  5.149  0.401E+00  0.168E+00  0.117E+00  0.117E+00
  5.159  0.412E+00  0.173E+00  0.119E+00  0.119E+00
  5.169  0.423E+00  0.178E+00  0.122E+00  0.122E+00
  5.179  0.433E+00  0.183E+00  0.125E+00  0.125E+00
  5.189  0.443E+00  0.187E+00  0.128E+00  0.128E+00
  5.199  0.452E+00  0.190E+00  0.131E+00  0.131E+00
  5.209  0.460E+00  0.194E+00  0.133E+00  0.133E+00
  5.219  0.467E+00  0.196E+00  0.135E+00  0.135E+00
  5.229  0.473E+00  0.198E+00  0.137E+00  0.137E+00
  5.239  0.478E+00  0.200E+00  0.139E+00  0.139E+00
  5.249  0.482E+00  0.201E+00  0.140E+00  0.140E+00
  5.259  0.485E+00  0.202E+00  0.141E+00  0.141E+00
  5.269  0.486E+00  0.202E+00  0.142E+00  0.142E+00
  5.279  0.487E+00  0.202E+00  0.143E+00  0.143E+00
  5.289  0.487E+00  0.201E+00  0.143E+00  0.143E+00
  5.299  0.487E+00  0.200E+00  0.143E+00  0.143E+00
  5.309  0.485E+00  0.199E+00  0.143E+00  0.143E+00
  5.319  0.483E+00  0.197E+00  0.143E+00  0.143E+00
  5.329  0.479E+00  0.195E+00  0.142E+00  0.142E+00
  5.339  0.476E+00  0.192E+00  0.142E+00  0.142E+00
  5.349  0.472E+00  0.190E+00  0.141E+00  0.141E+00
  5.359  0.467E+00  0.187E+00  0.140E+00  0.140E+00
  5.369  0.462E+00  0.184E+00  0.139E+00  0.139E+00
  5.379  0.457E+00  0.181E+00  0.138E+00  0.138E+00
  5.389  0.451E+00  0.178E+00  0.137E+00  0.137E+00
  5.399  0.445E+00  0.175E+00  0.135E+00  0.135E+00
  5.409  0.440E+00  0.172E+00  0.134E+00  0.134E+00
  5.419  0.434E+00  0.169E+00  0.132E+00  0.132E+00
  5.429  0.428E+00  0.166E+00  0.131E+00  0.131E+00
  5.439  0.422E+00  0.163E+00  0.130E+00  0.130E+00
  5.449  0.417E+00  0.161E+00  0.128E+00  0.128E+00
  5.459  0.412E+00  0.158E+00  0.127E+00  0.127E+00
  5.469  0.408E+00  0.156E+00  0.126E+00  0.126E+00
  5.479  0.404E+00  0.154E+00  0.125E+00  0.125E+00
  5.489  0.400E+00  0.152E+00  0.124E+00  0.124E+00
  5.499  0.397E+00  0.151E+00  0.123E+00  0.123E+00
  5.509  0.395E+00  0.149E+00  0.123E+00  0.123E+00
  5.519  0.394E+00  0.148E+00  0.123E+00  0.123E+00
  5.529  0.394E+00  0.147E+00  0.123E+00  0.123E+00
  5.539  0.394E+00  0.147E+00  0.124E+00  0.124E+00
  5.549  0.396E+00  0.147E+00  0.125E+00  0.125E+00
  5.559  0.398E+00  0.147E+00  0.126E+00  0.126E+00
  5.569  0.401E+00  0.147E+00  0.127E+00  0.127E+00
  5.579  0.405E+00  0.147E+00  0.129E+00  0.129E+00
  5.589  0.410E+00  0.148E+00  0.131E+00  0.131E+00
  5.599  0.415E+00  0.149E+00  0.133E+00  0.133E+00
  5.609  0.421E+00  0.150E+00  0.136E+00  0.136E+00
  5.619  0.428E+00  0.151E+00  0.138E+00  0.138E+00
  5.629  0.435E+00  0.152E+00  0.141E+00  0.141E+00
  5.639  0.442E+00  0.154E+00  0.144E+00  0.144E+00
  5.649  0.449E+00  0.155E+00  0.147E+00  0.147E+00
  5.659  0.456E+00  0.157E+00  0.149E+00  0.149E+00
  5.669  0.463E+00  0.159E+00  0.152E+00  0.152E+00
  5.679  0.470E+00  0.160E+00  0.155E+00  0.155E+00
  5.689  0.476E+00  0.162E+00  0.157E+00  0.157E+00
  5.699  0.481E+00  0.164E+00  0.159E+00  0.159E+00
  5.709  0.486E+00  0.165E+00  0.160E+00  0.160E+00
  5.719  0.490E+00  0.167E+00  0.162E+00  0.162E+00
  5.729  0.493E+00  0.168E+00  0.162E+00  0.162E+00
  5.739  0.496E+00  0.170E+00  0.163E+00  0.163E+00
  5.749  0.497E+00  0.171E+00  0.163E+00  0.163E+00
  5.759  0.497E+00  0.172E+00  0.163E+00  0.163E+00
  5.769  0.497E+00  0.173E+00  0.162E+00  0.162E+00
  5.779  0.495E+00  0.173E+00  0.161E+00  0.161E+00
  5.789  0.493E+00  0.174E+00  0.160E+00  0.160E+00
  5.799  0.490E+00  0.174E+00  0.158E+00  0.158E+00
  5.809  0.486E+00  0.174E+00  0.156E+00  0.156E+00
  5.819  0.482E+00  0.174E+00  0.154E+00  0.154E+00
  5.829  0.478E+00  0.174E+00  0.152E+00  0.152E+00
  5.839  0.473E+00  0.173E+00  0.150E+00  0.150E+00
  5.849  0.468E+00  0.172E+00  0.148E+00  0.148E+00
  5.859  0.464E+00  0.171E+00  0.146E+00  0.146E+00
  5.869  0.459E+00  0.170E+00  0.144E+00  0.144E+00
  5.879  0.455E+00  0.169E+00  0.143E+00  0.143E+00
  5.889  0.452E+00  0.168E+00  0.142E+00  0.142E+00
  5.899  0.449E+00  0.166E+00  0.141E+00  0.141E+00
  5.909  0.447E+00  0.165E+00  0.141E+00  0.141E+00
  5.919  0.445E+00  0.163E+00  0.141E+00  0.141E+00
  5.929  0.445E+00  0.162E+00  0.142E+00  0.142E+00
  5.939  0.445E+00  0.160E+00  0.143E+00  0.143E+00
  5.949  0.447E+00  0.159E+00  0.144E+00  0.144E+00
  5.959  0.449E+00  0.158E+00  0.146E+00  0.146E+00
  5.969  0.453E+00  0.157E+00  0.148E+00  0.148E+00
  5.979  0.457E+00  0.156E+00  0.150E+00  0.150E+00
  5.989  0.462E+00  0.155E+00  0.153E+00  0.153E+00
  5.999  0.468E+00  0.155E+00  0.156E+00  0.156E+00
  6.009  0.475E+00  0.155E+00  0.160E+00  0.160E+00
  6.019  0.482E+00  0.155E+00  0.163E+00  0.163E+00
  6.029  0.490E+00  0.156E+00  0.167E+00  0.167E+00
  6.039  0.498E+00  0.157E+00  0.170E+00  0.170E+00
  6.049  0.507E+00  0.159E+00  0.174E+00  0.174E+00
  6.059  0.515E+00  0.160E+00  0.178E+00  0.178E+00
  6.069  0.524E+00  0.162E+00  0.181E+00  0.181E+00
  6.079  0.533E+00  0.164E+00  0.184E+00  0.184E+00
  6.089  0.541E+00  0.166E+00  0.187E+00  0.187E+00
  6.099  0.550E+00  0.169E+00  0.190E+00  0.190E+00
  6.109  0.557E+00  0.171E+00  0.193E+00  0.193E+00
  6.119  0.564E+00  0.173E+00  0.195E+00  0.195E+00
  6.129  0.571E+00  0.176E+00  0.198E+00  0.198E+00
  6.139  0.577E+00  0.177E+00  0.200E+00  0.200E+00
  6.149  0.581E+00  0.179E+00  0.201E+00  0.201E+00
  6.159  0.585E+00  0.180E+00  0.202E+00  0.202E+00
  6.169  0.588E+00  0.181E+00  0.204E+00  0.204E+00
  6.179  0.591E+00  0.182E+00  0.204E+00  0.204E+00
  6.189  0.592E+00  0.182E+00  0.205E+00  0.205E+00
  6.199  0.592E+00  0.181E+00  0.205E+00  0.205E+00
  6.209  0.592E+00  0.181E+00  0.206E+00  0.206E+00
  6.219  0.590E+00  0.179E+00  0.206E+00  0.206E+00
  6.229  0.588E+00  0.178E+00  0.205E+00  0.205E+00
  6.239  0.586E+00  0.176E+00  0.205E+00  0.205E+00
  6.249  0.583E+00  0.174E+00  0.205E+00  0.205E+00
  6.259  0.580E+00  0.171E+00  0.204E+00  0.204E+00
  6.269  0.576E+00  0.169E+00  0.204E+00  0.204E+00
  6.279  0.572E+00  0.166E+00  0.203E+00  0.203E+00
  6.289  0.568E+00  0.164E+00  0.202E+00  0.202E+00
  6.299  0.565E+00  0.161E+00  0.202E+00  0.202E+00
  6.309  0.561E+00  0.159E+00  0.201E+00  0.201E+00
  6.319  0.558E+00  0.157E+00  0.200E+00  0.200E+00
  6.329  0.555E+00  0.155E+00  0.200E+00  0.200E+00
  6.339  0.553E+00  0.154E+00  0.199E+00  0.199E+00
  6.349  0.551E+00  0.153E+00  0.199E+00  0.199E+00
  6.359  0.550E+00  0.152E+00  0.199E+00  0.199E+00
  6.369  0.549E+00  0.152E+00  0.199E+00  0.199E+00
  6.379  0.550E+00  0.152E+00  0.199E+00  0.199E+00
  6.389  0.552E+00  0.152E+00  0.200E+00  0.200E+00
  6.399  0.554E+00  0.153E+00  0.201E+00  0.201E+00
  6.409  0.558E+00  0.154E+00  0.202E+00  0.202E+00
  6.419  0.562E+00  0.155E+00  0.203E+00  0.203E+00
  6.429  0.568E+00  0.157E+00  0.206E+00  0.206E+00
  6.439  0.574E+00  0.159E+00  0.208E+00  0.208E+00
  6.449  0.582E+00  0.161E+00  0.211E+00  0.211E+00
  6.459  0.591E+00  0.163E+00  0.214E+00  0.214E+00
  6.469  0.601E+00  0.165E+00  0.218E+00  0.218E+00
  6.479  0.611E+00  0.168E+00  0.222E+00  0.222E+00
  6.489  0.622E+00  0.170E+00  0.226E+00  0.226E+00
  6.499  0.634E+00  0.173E+00  0.230E+00  0.230E+00
  6.509  0.646E+00  0.175E+00  0.235E+00  0.235E+00
  6.519  0.658E+00  0.177E+00  0.240E+00  0.240E+00
  6.529  0.670E+00  0.179E+00  0.245E+00  0.245E+00
  6.539  0.682E+00  0.181E+00  0.250E+00  0.250E+00
  6.549  0.693E+00  0.182E+00  0.255E+00  0.255E+00
  6.559  0.704E+00  0.183E+00  0.260E+00  0.260E+00
  6.569  0.714E+00  0.184E+00  0.265E+00  0.265E+00
  6.579  0.724E+00  0.185E+00  0.270E+00  0.270E+00
  6.589  0.733E+00  0.185E+00  0.274E+00  0.274E+00
  6.599  0.740E+00  0.184E+00  0.278E+00  0.278E+00
  6.609  0.747E+00  0.184E+00  0.282E+00  0.282E+00
  6.619  0.753E+00  0.183E+00  0.285E+00  0.285E+00
  6.629  0.759E+00  0.182E+00  0.288E+00  0.288E+00
  6.639  0.763E+00  0.181E+00  0.291E+00  0.291E+00
  6.649  0.766E+00  0.179E+00  0.294E+00  0.294E+00
  6.659  0.769E+00  0.178E+00  0.296E+00  0.296E+00
  6.669  0.771E+00  0.177E+00  0.297E+00  0.297E+00
  6.679  0.773E+00  0.175E+00  0.299E+00  0.299E+00
  6.689  0.774E+00  0.174E+00  0.300E+00  0.300E+00
  6.699  0.775E+00  0.173E+00  0.301E+00  0.301E+00
  6.709  0.776E+00  0.173E+00  0.302E+00  0.302E+00
  6.719  0.776E+00  0.172E+00  0.302E+00  0.302E+00
  6.729  0.776E+00  0.172E+00  0.302E+00  0.302E+00
  6.739  0.776E+00  0.171E+00  0.302E+00  0.302E+00
  6.749  0.776E+00  0.171E+00  0.302E+00  0.302E+00
  6.759  0.776E+00  0.172E+00  0.302E+00  0.302E+00
  6.769  0.776E+00  0.172E+00  0.302E+00  0.302E+00
  6.779  0.776E+00  0.172E+00  0.302E+00  0.302E+00
  6.789  0.776E+00  0.173E+00  0.301E+00  0.301E+00
  6.799  0.776E+00  0.173E+00  0.301E+00  0.301E+00
  6.809  0.776E+00  0.174E+00  0.301E+00  0.301E+00
  6.819  0.777E+00  0.175E+00  0.301E+00  0.301E+00
  6.829  0.778E+00  0.176E+00  0.301E+00  0.301E+00
  6.839  0.779E+00  0.176E+00  0.301E+00  0.301E+00
  6.849  0.781E+00  0.177E+00  0.302E+00  0.302E+00
  6.859  0.783E+00  0.178E+00  0.302E+00  0.302E+00
  6.869  0.785E+00  0.180E+00  0.303E+00  0.303E+00
  6.879  0.788E+00  0.181E+00  0.304E+00  0.304E+00
  6.889  0.792E+00  0.183E+00  0.305E+00  0.305E+00
  6.899  0.796E+00  0.184E+00  0.306E+00  0.306E+00
  6.909  0.801E+00  0.187E+00  0.307E+00  0.307E+00
  6.919  0.807E+00  0.189E+00  0.309E+00  0.309E+00
  6.929  0.814E+00  0.193E+00  0.311E+00  0.311E+00
  6.939  0.821E+00  0.196E+00  0.312E+00  0.312E+00
  6.949  0.828E+00  0.200E+00  0.314E+00  0.314E+00
  6.959  0.836E+00  0.205E+00  0.316E+00  0.316E+00
  6.969  0.845E+00  0.210E+00  0.317E+00  0.317E+00
  6.979  0.853E+00  0.215E+00  0.319E+00  0.319E+00
  6.989  0.862E+00  0.221E+00  0.320E+00  0.320E+00
  6.999  0.871E+00  0.227E+00  0.322E+00  0.322E+00
  7.009  0.879E+00  0.233E+00  0.323E+00  0.323E+00
  7.019  0.887E+00  0.239E+00  0.324E+00  0.324E+00
  7.029  0.894E+00  0.245E+00  0.324E+00  0.324E+00
  7.039  0.901E+00  0.251E+00  0.325E+00  0.325E+00
  7.049  0.906E+00  0.257E+00  0.325E+00  0.325E+00
  7.059  0.911E+00  0.262E+00  0.325E+00  0.325E+00
  7.069  0.915E+00  0.267E+00  0.324E+00  0.324E+00
  7.079  0.918E+00  0.271E+00  0.323E+00  0.323E+00
  7.089  0.920E+00  0.275E+00  0.322E+00  0.322E+00
  7.099  0.922E+00  0.279E+00  0.321E+00  0.321E+00
  7.109  0.922E+00  0.282E+00  0.320E+00  0.320E+00
  7.119  0.923E+00  0.284E+00  0.319E+00  0.319E+00
  7.129  0.923E+00  0.286E+00  0.318E+00  0.318E+00
  7.139  0.923E+00  0.288E+00  0.317E+00  0.317E+00
  7.149  0.923E+00  0.290E+00  0.316E+00  0.316E+00
  7.159  0.924E+00  0.292E+00  0.316E+00  0.316E+00
  7.169  0.925E+00  0.294E+00  0.316E+00  0.316E+00
  7.179  0.927E+00  0.295E+00  0.316E+00  0.316E+00
  7.189  0.930E+00  0.297E+00  0.316E+00  0.316E+00
  7.199  0.934E+00  0.299E+00  0.317E+00  0.317E+00
  7.209  0.939E+00  0.301E+00  0.319E+00  0.319E+00
  7.219  0.945E+00  0.304E+00  0.320E+00  0.320E+00
  7.229  0.952E+00  0.307E+00  0.322E+00  0.322E+00
  7.239  0.959E+00  0.310E+00  0.325E+00  0.325E+00
  7.249  0.968E+00  0.313E+00  0.328E+00  0.328E+00
  7.259  0.977E+00  0.316E+00  0.331E+00  0.331E+00
  7.269  0.987E+00  0.319E+00  0.334E+00  0.334E+00
  7.279  0.997E+00  0.323E+00  0.337E+00  0.337E+00
  7.289  0.101E+01  0.327E+00  0.340E+00  0.340E+00
  7.299  0.102E+01  0.330E+00  0.343E+00  0.343E+00
  7.309  0.103E+01  0.334E+00  0.346E+00  0.346E+00
  7.319  0.103E+01  0.338E+00  0.348E+00  0.348E+00
  7.329  0.104E+01  0.341E+00  0.350E+00  0.350E+00
  7.339  0.105E+01  0.345E+00  0.351E+00  0.351E+00
  7.349  0.105E+01  0.349E+00  0.352E+00  0.352E+00
  7.359  0.106E+01  0.353E+00  0.353E+00  0.353E+00
  7.369  0.106E+01  0.357E+00  0.353E+00  0.353E+00
  7.379  0.107E+01  0.361E+00  0.352E+00  0.352E+00
  7.389  0.107E+01  0.365E+00  0.352E+00  0.352E+00
  7.399  0.107E+01  0.369E+00  0.350E+00  0.350E+00
  7.409  0.107E+01  0.373E+00  0.349E+00  0.349E+00
  7.419  0.107E+01  0.377E+00  0.347E+00  0.347E+00
  7.429  0.107E+01  0.382E+00  0.346E+00  0.346E+00
  7.439  0.107E+01  0.386E+00  0.344E+00  0.344E+00
  7.449  0.108E+01  0.391E+00  0.342E+00  0.342E+00
  7.459  0.108E+01  0.395E+00  0.341E+00  0.341E+00
  7.469  0.108E+01  0.400E+00  0.340E+00  0.340E+00
  7.479  0.108E+01  0.405E+00  0.339E+00  0.339E+00
  7.489  0.109E+01  0.410E+00  0.338E+00  0.338E+00
  7.499  0.109E+01  0.415E+00  0.338E+00  0.338E+00
  7.509  0.109E+01  0.419E+00  0.338E+00  0.338E+00
  7.519  0.110E+01  0.424E+00  0.338E+00  0.338E+00
  7.529  0.111E+01  0.429E+00  0.339E+00  0.339E+00
  7.539  0.111E+01  0.433E+00  0.341E+00  0.341E+00
  7.549  0.112E+01  0.437E+00  0.342E+00  0.342E+00
  7.559  0.113E+01  0.442E+00  0.344E+00  0.344E+00
  7.569  0.114E+01  0.446E+00  0.346E+00  0.346E+00
  7.579  0.115E+01  0.450E+00  0.349E+00  0.349E+00
  7.589  0.116E+01  0.454E+00  0.351E+00  0.351E+00
  7.599  0.117E+01  0.459E+00  0.354E+00  0.354E+00
  7.609  0.118E+01  0.463E+00  0.357E+00  0.357E+00
  7.619  0.119E+01  0.468E+00  0.359E+00  0.359E+00
  7.629  0.120E+01  0.473E+00  0.362E+00  0.362E+00
  7.639  0.121E+01  0.479E+00  0.365E+00  0.365E+00
  7.649  0.122E+01  0.485E+00  0.368E+00  0.368E+00
  7.659  0.123E+01  0.492E+00  0.370E+00  0.370E+00
  7.669  0.125E+01  0.500E+00  0.373E+00  0.373E+00
  7.679  0.126E+01  0.508E+00  0.375E+00  0.375E+00
  7.689  0.127E+01  0.517E+00  0.378E+00  0.378E+00
  7.699  0.129E+01  0.526E+00  0.380E+00  0.380E+00
  7.709  0.130E+01  0.536E+00  0.383E+00  0.383E+00
  7.719  0.132E+01  0.547E+00  0.385E+00  0.385E+00
  7.729  0.133E+01  0.558E+00  0.387E+00  0.387E+00
  7.739  0.135E+01  0.569E+00  0.390E+00  0.390E+00
  7.749  0.137E+01  0.581E+00  0.392E+00  0.392E+00
  7.759  0.138E+01  0.592E+00  0.395E+00  0.395E+00
  7.769  0.140E+01  0.604E+00  0.397E+00  0.397E+00
  7.779  0.141E+01  0.615E+00  0.399E+00  0.399E+00
  7.789  0.143E+01  0.626E+00  0.402E+00  0.402E+00
  7.799  0.144E+01  0.636E+00  0.404E+00  0.404E+00
  7.809  0.146E+01  0.645E+00  0.406E+00  0.406E+00
  7.819  0.147E+01  0.653E+00  0.408E+00  0.408E+00
  7.829  0.148E+01  0.661E+00  0.410E+00  0.410E+00
  7.839  0.149E+01  0.667E+00  0.411E+00  0.411E+00
  7.849  0.150E+01  0.672E+00  0.413E+00  0.413E+00
  7.859  0.150E+01  0.676E+00  0.414E+00  0.414E+00
  7.869  0.151E+01  0.678E+00  0.416E+00  0.416E+00
  7.879  0.151E+01  0.679E+00  0.416E+00  0.416E+00
  7.889  0.151E+01  0.678E+00  0.417E+00  0.417E+00
  7.899  0.151E+01  0.676E+00  0.418E+00  0.418E+00
  7.909  0.151E+01  0.673E+00  0.418E+00  0.418E+00
  7.919  0.150E+01  0.668E+00  0.418E+00  0.418E+00
  7.929  0.150E+01  0.662E+00  0.418E+00  0.418E+00
  7.939  0.149E+01  0.654E+00  0.418E+00  0.418E+00
  7.949  0.148E+01  0.646E+00  0.418E+00  0.418E+00
  7.959  0.147E+01  0.636E+00  0.417E+00  0.417E+00
  7.969  0.146E+01  0.626E+00  0.416E+00  0.416E+00
  7.979  0.144E+01  0.614E+00  0.415E+00  0.415E+00
  7.989  0.143E+01  0.602E+00  0.414E+00  0.414E+00
  7.999  0.141E+01  0.589E+00  0.413E+00  0.413E+00
  8.009  0.140E+01  0.575E+00  0.412E+00  0.412E+00
  8.019  0.138E+01  0.561E+00  0.410E+00  0.410E+00
  8.029  0.136E+01  0.547E+00  0.408E+00  0.408E+00
  8.039  0.135E+01  0.532E+00  0.407E+00  0.407E+00
  8.049  0.133E+01  0.517E+00  0.405E+00  0.405E+00
  8.059  0.131E+01  0.503E+00  0.403E+00  0.403E+00
  8.069  0.129E+01  0.488E+00  0.401E+00  0.401E+00
  8.079  0.127E+01  0.474E+00  0.398E+00  0.398E+00
  8.089  0.125E+01  0.460E+00  0.396E+00  0.396E+00
  8.099  0.124E+01  0.447E+00  0.395E+00  0.395E+00
  8.109  0.122E+01  0.434E+00  0.393E+00  0.393E+00
  8.119  0.120E+01  0.422E+00  0.391E+00  0.391E+00
  8.129  0.119E+01  0.410E+00  0.389E+00  0.389E+00
  8.139  0.118E+01  0.399E+00  0.388E+00  0.388E+00
  8.149  0.116E+01  0.389E+00  0.387E+00  0.387E+00
  8.159  0.115E+01  0.380E+00  0.386E+00  0.386E+00
  8.169  0.114E+01  0.371E+00  0.385E+00  0.385E+00
  8.179  0.113E+01  0.364E+00  0.384E+00  0.384E+00
  8.189  0.112E+01  0.356E+00  0.383E+00  0.383E+00
  8.199  0.111E+01  0.350E+00  0.382E+00  0.382E+00
  8.209  0.111E+01  0.344E+00  0.381E+00  0.381E+00
  8.219  0.110E+01  0.338E+00  0.380E+00  0.380E+00
  8.229  0.109E+01  0.333E+00  0.379E+00  0.379E+00
  8.239  0.108E+01  0.328E+00  0.377E+00  0.377E+00
  8.249  0.107E+01  0.323E+00  0.376E+00  0.376E+00
  8.259  0.107E+01  0.319E+00  0.374E+00  0.374E+00
  8.269  0.106E+01  0.314E+00  0.371E+00  0.371E+00
  8.279  0.105E+01  0.310E+00  0.369E+00  0.369E+00
  8.289  0.104E+01  0.306E+00  0.366E+00  0.366E+00
  8.299  0.103E+01  0.302E+00  0.363E+00  0.363E+00
  8.309  0.102E+01  0.297E+00  0.359E+00  0.359E+00
  8.319  0.100E+01  0.293E+00  0.355E+00  0.355E+00
  8.329  0.991E+00  0.289E+00  0.351E+00  0.351E+00
  8.339  0.979E+00  0.285E+00  0.347E+00  0.347E+00
  8.349  0.966E+00  0.281E+00  0.342E+00  0.342E+00
  8.359  0.952E+00  0.278E+00  0.337E+00  0.337E+00
  8.369  0.939E+00  0.274E+00  0.333E+00  0.333E+00
  8.379  0.926E+00  0.270E+00  0.328E+00  0.328E+00
  8.389  0.913E+00  0.267E+00  0.323E+00  0.323E+00
  8.399  0.899E+00  0.263E+00  0.318E+00  0.318E+00
  8.409  0.886E+00  0.260E+00  0.313E+00  0.313E+00
  8.419  0.873E+00  0.257E+00  0.308E+00  0.308E+00
  8.429  0.860E+00  0.253E+00  0.303E+00  0.303E+00
  8.439  0.847E+00  0.250E+00  0.299E+00  0.299E+00
  8.449  0.835E+00  0.247E+00  0.294E+00  0.294E+00
  8.459  0.823E+00  0.244E+00  0.289E+00  0.289E+00
  8.469  0.810E+00  0.240E+00  0.285E+00  0.285E+00
  8.479  0.798E+00  0.237E+00  0.281E+00  0.281E+00
  8.489  0.787E+00  0.234E+00  0.277E+00  0.277E+00
  8.499  0.775E+00  0.230E+00  0.273E+00  0.273E+00
  8.509  0.764E+00  0.227E+00  0.269E+00  0.269E+00
  8.519  0.753E+00  0.224E+00  0.265E+00  0.265E+00
  8.529  0.742E+00  0.220E+00  0.261E+00  0.261E+00
  8.539  0.732E+00  0.217E+00  0.257E+00  0.257E+00
  8.549  0.722E+00  0.214E+00  0.254E+00  0.254E+00
  8.559  0.712E+00  0.211E+00  0.250E+00  0.250E+00
  8.569  0.702E+00  0.208E+00  0.247E+00  0.247E+00
  8.579  0.692E+00  0.206E+00  0.243E+00  0.243E+00
  8.589  0.683E+00  0.203E+00  0.240E+00  0.240E+00
  8.599  0.674E+00  0.200E+00  0.237E+00  0.237E+00
  8.609  0.665E+00  0.198E+00  0.234E+00  0.234E+00
  8.619  0.656E+00  0.195E+00  0.230E+00  0.230E+00
  8.629  0.648E+00  0.193E+00  0.227E+00  0.227E+00
  8.639  0.639E+00  0.191E+00  0.224E+00  0.224E+00
  8.649  0.631E+00  0.188E+00  0.221E+00  0.221E+00
  8.659  0.622E+00  0.186E+00  0.218E+00  0.218E+00
  8.669  0.614E+00  0.184E+00  0.215E+00  0.215E+00
  8.679  0.606E+00  0.181E+00  0.212E+00  0.212E+00
  8.689  0.598E+00  0.179E+00  0.210E+00  0.210E+00
  8.699  0.590E+00  0.176E+00  0.207E+00  0.207E+00
  8.709  0.582E+00  0.174E+00  0.204E+00  0.204E+00
  8.719  0.574E+00  0.171E+00  0.201E+00  0.201E+00
  8.729  0.567E+00  0.169E+00  0.199E+00  0.199E+00
  8.739  0.559E+00  0.167E+00  0.196E+00  0.196E+00
  8.749  0.552E+00  0.164E+00  0.194E+00  0.194E+00
  8.759  0.545E+00  0.162E+00  0.191E+00  0.191E+00
  8.769  0.538E+00  0.160E+00  0.189E+00  0.189E+00
  8.779  0.531E+00  0.158E+00  0.187E+00  0.187E+00
  8.789  0.525E+00  0.156E+00  0.184E+00  0.184E+00
  8.799  0.518E+00  0.154E+00  0.182E+00  0.182E+00
  8.809  0.511E+00  0.152E+00  0.180E+00  0.180E+00
  8.819  0.505E+00  0.150E+00  0.178E+00  0.178E+00
  8.829  0.498E+00  0.148E+00  0.175E+00  0.175E+00
  8.839  0.492E+00  0.146E+00  0.173E+00  0.173E+00
  8.849  0.485E+00  0.144E+00  0.171E+00  0.171E+00
  8.859  0.479E+00  0.142E+00  0.168E+00  0.168E+00
  8.869  0.472E+00  0.140E+00  0.166E+00  0.166E+00
  8.879  0.466E+00  0.138E+00  0.164E+00  0.164E+00
  8.889  0.459E+00  0.136E+00  0.162E+00  0.162E+00
  8.899  0.453E+00  0.134E+00  0.159E+00  0.159E+00
  8.909  0.446E+00  0.132E+00  0.157E+00  0.157E+00
  8.919  0.439E+00  0.130E+00  0.155E+00  0.155E+00
  8.929  0.432E+00  0.128E+00  0.152E+00  0.152E+00
  8.939  0.426E+00  0.125E+00  0.150E+00  0.150E+00
  8.949  0.419E+00  0.123E+00  0.148E+00  0.148E+00
  8.959  0.412E+00  0.121E+00  0.146E+00  0.146E+00
  8.969  0.405E+00  0.118E+00  0.144E+00  0.144E+00
  8.979  0.399E+00  0.116E+00  0.141E+00  0.141E+00
  8.989  0.392E+00  0.114E+00  0.139E+00  0.139E+00
  8.999  0.385E+00  0.111E+00  0.137E+00  0.137E+00
  9.009  0.378E+00  0.109E+00  0.135E+00  0.135E+00
  9.019  0.371E+00  0.106E+00  0.132E+00  0.132E+00
  9.029  0.363E+00  0.104E+00  0.130E+00  0.130E+00
  9.039  0.356E+00  0.101E+00  0.127E+00  0.127E+00
  9.049  0.349E+00  0.985E-01  0.125E+00  0.125E+00
  9.059  0.341E+00  0.959E-01  0.122E+00  0.122E+00
  9.069  0.333E+00  0.932E-01  0.120E+00  0.120E+00
  9.079  0.325E+00  0.905E-01  0.117E+00  0.117E+00
  9.089  0.317E+00  0.877E-01  0.115E+00  0.115E+00
  9.099  0.308E+00  0.849E-01  0.112E+00  0.112E+00
  9.109  0.300E+00  0.820E-01  0.109E+00  0.109E+00
  9.119  0.291E+00  0.791E-01  0.106E+00  0.106E+00
  9.129  0.282E+00  0.761E-01  0.103E+00  0.103E+00
  9.139  0.273E+00  0.731E-01  0.998E-01  0.998E-01
  9.149  0.263E+00  0.700E-01  0.966E-01  0.966E-01
  9.159  0.253E+00  0.668E-01  0.933E-01  0.933E-01
  9.169  0.243E+00  0.637E-01  0.898E-01  0.898E-01
  9.179  0.233E+00  0.604E-01  0.863E-01  0.863E-01
  9.189  0.223E+00  0.572E-01  0.827E-01  0.827E-01
  9.199  0.212E+00  0.539E-01  0.790E-01  0.790E-01
  9.209  0.201E+00  0.506E-01  0.753E-01  0.753E-01
  9.219  0.190E+00  0.473E-01  0.714E-01  0.714E-01
  9.229  0.179E+00  0.440E-01  0.675E-01  0.675E-01
  9.239  0.168E+00  0.408E-01  0.636E-01  0.636E-01
  9.249  0.157E+00  0.376E-01  0.596E-01  0.596E-01
  9.259  0.146E+00  0.344E-01  0.556E-01  0.556E-01
  9.269  0.135E+00  0.314E-01  0.516E-01  0.516E-01
  9.279  0.124E+00  0.285E-01  0.477E-01  0.477E-01
  9.289  0.113E+00  0.257E-01  0.439E-01  0.439E-01
  9.299  0.103E+00  0.230E-01  0.401E-01  0.401E-01
  9.309  0.933E-01  0.205E-01  0.364E-01  0.364E-01
  9.319  0.839E-01  0.181E-01  0.329E-01  0.329E-01
  9.329  0.750E-01  0.159E-01  0.296E-01  0.296E-01
  9.339  0.666E-01  0.138E-01  0.264E-01  0.264E-01
  9.349  0.587E-01  0.120E-01  0.234E-01  0.234E-01
  9.359  0.514E-01  0.103E-01  0.206E-01  0.206E-01
  9.369  0.447E-01  0.877E-02  0.180E-01  0.180E-01
  9.379  0.386E-01  0.742E-02  0.156E-01  0.156E-01
  9.389  0.330E-01  0.623E-02  0.134E-01  0.134E-01
  9.399  0.281E-01  0.518E-02  0.115E-01  0.115E-01
  9.409  0.237E-01  0.428E-02  0.972E-02  0.972E-02
  9.419  0.198E-01  0.350E-02  0.817E-02  0.817E-02
  9.429  0.165E-01  0.284E-02  0.682E-02  0.682E-02
  9.439  0.136E-01  0.229E-02  0.564E-02  0.564E-02
  9.449  0.111E-01  0.182E-02  0.463E-02  0.463E-02
  9.459  0.898E-02  0.144E-02  0.377E-02  0.377E-02
  9.469  0.721E-02  0.113E-02  0.304E-02  0.304E-02
  9.479  0.574E-02  0.877E-03  0.243E-02  0.243E-02
  9.489  0.453E-02  0.674E-03  0.193E-02  0.193E-02
  9.499  0.355E-02  0.514E-03  0.152E-02  0.152E-02
  9.509  0.275E-02  0.388E-03  0.118E-02  0.118E-02
  9.519  0.211E-02  0.290E-03  0.912E-03  0.912E-03
  9.529  0.161E-02  0.215E-03  0.697E-03  0.697E-03
  9.539  0.121E-02  0.158E-03  0.528E-03  0.528E-03
  9.549  0.908E-03  0.115E-03  0.397E-03  0.397E-03
  9.559  0.673E-03  0.826E-04  0.295E-03  0.295E-03
  9.569  0.494E-03  0.589E-04  0.217E-03  0.217E-03
  9.579  0.359E-03  0.416E-04  0.159E-03  0.159E-03
  9.589  0.259E-03  0.291E-04  0.115E-03  0.115E-03
  9.599  0.185E-03  0.201E-04  0.822E-04  0.822E-04
  9.609  0.130E-03  0.138E-04  0.583E-04  0.583E-04
  9.619  0.912E-04  0.935E-05  0.409E-04  0.409E-04
  9.629  0.632E-04  0.628E-05  0.285E-04  0.285E-04
  9.639  0.434E-04  0.418E-05  0.196E-04  0.196E-04
  9.649  0.295E-04  0.275E-05  0.134E-04  0.134E-04
  9.659  0.199E-04  0.179E-05  0.904E-05  0.904E-05
  9.669  0.132E-04  0.116E-05  0.604E-05  0.604E-05
  9.679  0.874E-05  0.739E-06  0.400E-05  0.400E-05
  9.689  0.571E-05  0.468E-06  0.262E-05  0.262E-05
  9.699  0.370E-05  0.293E-06  0.170E-05  0.170E-05
  9.709  0.237E-05  0.181E-06  0.109E-05  0.109E-05
  9.719  0.150E-05  0.111E-06  0.696E-06  0.696E-06
  9.729  0.944E-06  0.675E-07  0.438E-06  0.438E-06
  9.739  0.587E-06  0.405E-07  0.273E-06  0.273E-06
  9.749  0.361E-06  0.241E-07  0.168E-06  0.168E-06
  9.759  0.220E-06  0.142E-07  0.103E-06  0.103E-06
  9.769  0.133E-06  0.826E-08  0.622E-07  0.622E-07
  9.779  0.792E-07  0.476E-08  0.372E-07  0.372E-07
  9.789  0.468E-07  0.272E-08  0.220E-07  0.220E-07
  9.799  0.274E-07  0.153E-08  0.129E-07  0.129E-07
  9.809  0.159E-07  0.858E-09  0.750E-08  0.750E-08
  9.819  0.909E-08  0.474E-09  0.431E-08  0.431E-08
  9.829  0.516E-08  0.259E-09  0.245E-08  0.245E-08
  9.839  0.289E-08  0.141E-09  0.138E-08  0.138E-08
  9.849  0.161E-08  0.753E-10  0.767E-09  0.767E-09
  9.859  0.885E-09  0.399E-10  0.422E-09  0.422E-09
  9.869  0.482E-09  0.210E-10  0.230E-09  0.230E-09
  9.879  0.259E-09  0.109E-10  0.124E-09  0.124E-09
  9.889  0.138E-09  0.558E-11  0.664E-10  0.664E-10
  9.899  0.730E-10  0.283E-11  0.351E-10  0.351E-10
  9.909  0.381E-10  0.142E-11  0.183E-10  0.183E-10
  9.919  0.197E-10  0.694E-12  0.950E-11  0.950E-11
  9.929  0.101E-10  0.343E-12  0.485E-11  0.485E-11
  9.939  0.501E-11  0.152E-12  0.243E-11  0.243E-11
  9.949  0.250E-11  0.738E-13  0.121E-11  0.121E-11
  9.959  0.122E-11  0.354E-13  0.594E-12  0.594E-12
  9.969  0.592E-12  0.708E-14  0.292E-12  0.292E-12
  9.979  0.288E-12  0.336E-14  0.142E-12  0.142E-12
  9.989  0.116E-12  0.528E-21  0.579E-13  0.579E-13
  9.999  0.390E-13  0.442E-23  0.195E-13  0.195E-13
 10.009  0.113E-13  0.204E-23  0.567E-14  0.567E-14
 10.019  0.000E+00  0.000E+00  0.000E+00  0.000E+00
 10.029  0.000E+00  0.000E+00  0.000E+00  0.000E+00
 10.039  0.000E+00  0.000E+00  0.000E+00  0.000E+00
 10.049  0.000E+00  0.000E+00  0.000E+00  0.000E+00
 10.059  0.000E+00  0.000E+00  0.000E+00  0.000E+00
 10.069  0.000E+00  0.000E+00  0.000E+00  0.000E+00
 10.079  0.000E+00  0.000E+00  0.000E+00  0.000E+00
 10.089  0.000E+00  0.000E+00  0.000E+00  0.000E+00
 10.099  0.000E+00  0.000E+00  0.000E+00  0.000E+00
 10.109  0.000E+00  0.000E+00  0.000E+00  0.000E+00
 10.119  0.000E+00  0.000E+00  0.000E+00  0.000E+00
 10.129  0.000E+00  0.000E+00  0.000E+00  0.000E+00
 10.139  0.000E+00  0.000E+00  0.000E+00  0.000E+00
 10.149  0.000E+00  0.000E+00  0.000E+00  0.000E+00
 10.159  0.000E+00  0.000E+00  0.000E+00  0.000E+00
 10.169  0.000E+00  0.000E+00  0.000E+00  0.000E+00
 10.179  0.000E+00  0.000E+00  0.000E+00  0.000E+00
 10.189  0.000E+00  0.000E+00  0.000E+00  0.000E+00
 10.199  0.000E+00  0.000E+00  0.000E+00  0.000E+00
 10.209  0.000E+00  0.000E+00  0.000E+00  0.000E+00
 10.219  0.000E+00  0.000E+00  0.000E+00  0.000E+00
 10.229  0.000E+00  0.000E+00  0.000E+00  0.000E+00
 10.239  0.000E+00  0.000E+00  0.000E+00  0.000E+00
 10.249  0.000E+00  0.000E+00  0.000E+00  0.000E+00
 10.259  0.000E+00  0.000E+00  0.000E+00  0.000E+00
 10.269  0.000E+00  0.000E+00  0.000E+00  0.000E+00
 10.279  0.000E+00  0.000E+00  0.000E+00  0.000E+00
 10.289  0.000E+00  0.000E+00  0.000E+00  0.000E+00
 10.299  0.000E+00  0.000E+00  0.000E+00  0.000E+00
 10.309  0.000E+00  0.000E+00  0.000E+00  0.000E+00
 10.319  0.000E+00  0.000E+00  0.000E+00  0.000E+00
 10.329  0.000E+00  0.000E+00  0.000E+00  0.000E+00
 10.339  0.000E+00  0.000E+00  0.000E+00  0.000E+00
 10.349  0.000E+00  0.000E+00  0.000E+00  0.000E+00
 10.359  0.000E+00  0.000E+00  0.000E+00  0.000E+00
 10.369  0.355E-17  0.355E-17  0.110E-26  0.110E-26
 10.379  0.743E-17  0.743E-17  0.231E-26  0.231E-26
 10.389  0.154E-16  0.154E-16  0.478E-26  0.478E-26
 10.399  0.316E-16  0.316E-16  0.979E-26  0.979E-26
 10.409  0.640E-16  0.640E-16  0.199E-25  0.199E-25
 10.419  0.128E-15  0.128E-15  0.399E-25  0.399E-25
 10.429  0.255E-15  0.255E-15  0.791E-25  0.791E-25
 10.439  0.500E-15  0.500E-15  0.155E-24  0.155E-24
 10.449  0.972E-15  0.972E-15  0.302E-24  0.302E-24
 10.459  0.187E-14  0.187E-14  0.580E-24  0.580E-24
 10.469  0.355E-14  0.355E-14  0.110E-23  0.110E-23
 10.479  0.667E-14  0.667E-14  0.207E-23  0.207E-23
 10.489  0.124E-13  0.124E-13  0.385E-23  0.385E-23
 10.499  0.228E-13  0.228E-13  0.709E-23  0.709E-23
 10.509  0.416E-13  0.416E-13  0.129E-22  0.129E-22
 10.519  0.749E-13  0.749E-13  0.232E-22  0.232E-22
 10.529  0.133E-12  0.133E-12  0.414E-22  0.414E-22
 10.539  0.235E-12  0.235E-12  0.730E-22  0.730E-22
 10.549  0.410E-12  0.410E-12  0.127E-21  0.127E-21
 10.559  0.707E-12  0.707E-12  0.219E-21  0.219E-21
 10.569  0.121E-11  0.121E-11  0.374E-21  0.374E-21
 10.579  0.204E-11  0.204E-11  0.632E-21  0.632E-21
 10.589  0.340E-11  0.340E-11  0.105E-20  0.105E-20
 10.599  0.562E-11  0.562E-11  0.174E-20  0.174E-20
 10.609  0.919E-11  0.919E-11  0.169E-14  0.169E-14
 10.619  0.149E-10  0.149E-10  0.354E-14  0.354E-14
 10.629  0.238E-10  0.238E-10  0.731E-14  0.731E-14
 10.639  0.377E-10  0.376E-10  0.149E-13  0.149E-13
 10.649  0.590E-10  0.589E-10  0.302E-13  0.302E-13
 10.659  0.914E-10  0.913E-10  0.603E-13  0.603E-13
 10.669  0.140E-09  0.140E-09  0.119E-12  0.119E-12
 10.679  0.213E-09  0.212E-09  0.233E-12  0.233E-12
 10.689  0.320E-09  0.319E-09  0.452E-12  0.452E-12
 10.699  0.476E-09  0.474E-09  0.865E-12  0.865E-12
 10.709  0.700E-09  0.697E-09  0.164E-11  0.164E-11
 10.719  0.102E-08  0.101E-08  0.307E-11  0.307E-11
 10.729  0.147E-08  0.146E-08  0.569E-11  0.569E-11
 10.739  0.211E-08  0.209E-08  0.104E-10  0.104E-10
 10.749  0.299E-08  0.295E-08  0.189E-10  0.189E-10
 10.759  0.420E-08  0.414E-08  0.340E-10  0.340E-10
 10.769  0.586E-08  0.574E-08  0.604E-10  0.604E-10
 10.779  0.812E-08  0.790E-08  0.106E-09  0.106E-09
 10.789  0.112E-07  0.108E-07  0.184E-09  0.184E-09
 10.799  0.153E-07  0.146E-07  0.317E-09  0.317E-09
 10.809  0.208E-07  0.197E-07  0.538E-09  0.538E-09
 10.819  0.281E-07  0.263E-07  0.905E-09  0.905E-09
 10.829  0.380E-07  0.350E-07  0.151E-08  0.151E-08
 10.839  0.513E-07  0.464E-07  0.248E-08  0.248E-08
 10.849  0.693E-07  0.612E-07  0.404E-08  0.404E-08
 10.859  0.935E-07  0.805E-07  0.650E-08  0.650E-08
 10.869  0.127E-06  0.106E-06  0.104E-07  0.104E-07
 10.879  0.172E-06  0.139E-06  0.163E-07  0.163E-07
 10.889  0.233E-06  0.182E-06  0.255E-07  0.255E-07
 10.899  0.318E-06  0.239E-06  0.393E-07  0.393E-07
 10.909  0.434E-06  0.314E-06  0.600E-07  0.600E-07
 10.919  0.594E-06  0.413E-06  0.906E-07  0.906E-07
 10.929  0.813E-06  0.543E-06  0.135E-06  0.135E-06
 10.939  0.111E-05  0.714E-06  0.200E-06  0.200E-06
 10.949  0.152E-05  0.937E-06  0.292E-06  0.292E-06
 10.959  0.208E-05  0.123E-05  0.423E-06  0.423E-06
 10.969  0.282E-05  0.161E-05  0.605E-06  0.605E-06
 10.979  0.381E-05  0.210E-05  0.856E-06  0.856E-06
 10.989  0.512E-05  0.272E-05  0.120E-05  0.120E-05
 10.999  0.684E-05  0.352E-05  0.166E-05  0.166E-05
 11.009  0.907E-05  0.452E-05  0.228E-05  0.228E-05
 11.019  0.119E-04  0.577E-05  0.308E-05  0.308E-05
 11.029  0.156E-04  0.731E-05  0.414E-05  0.414E-05
 11.039  0.202E-04  0.918E-05  0.549E-05  0.549E-05
 11.049  0.259E-04  0.114E-04  0.721E-05  0.721E-05
 11.059  0.329E-04  0.141E-04  0.937E-05  0.937E-05
 11.069  0.414E-04  0.173E-04  0.120E-04  0.120E-04
 11.079  0.517E-04  0.210E-04  0.153E-04  0.153E-04
 11.089  0.638E-04  0.253E-04  0.193E-04  0.193E-04
 11.099  0.781E-04  0.301E-04  0.240E-04  0.240E-04
 11.109  0.947E-04  0.356E-04  0.296E-04  0.296E-04
 11.119  0.114E-03  0.416E-04  0.361E-04  0.361E-04
 11.129  0.135E-03  0.482E-04  0.436E-04  0.436E-04
 11.139  0.160E-03  0.554E-04  0.521E-04  0.521E-04
 11.149  0.186E-03  0.631E-04  0.616E-04  0.616E-04
 11.159  0.216E-03  0.712E-04  0.722E-04  0.722E-04
 11.169  0.247E-03  0.798E-04  0.837E-04  0.837E-04
 11.179  0.281E-03  0.887E-04  0.962E-04  0.962E-04
 11.189  0.317E-03  0.980E-04  0.110E-03  0.110E-03
 11.199  0.355E-03  0.108E-03  0.124E-03  0.124E-03
 11.209  0.394E-03  0.117E-03  0.138E-03  0.138E-03
 11.219  0.434E-03  0.127E-03  0.153E-03  0.153E-03
 11.229  0.475E-03  0.138E-03  0.168E-03  0.168E-03
 11.239  0.516E-03  0.149E-03  0.184E-03  0.184E-03
 11.249  0.558E-03  0.161E-03  0.199E-03  0.199E-03
 11.259  0.601E-03  0.173E-03  0.214E-03  0.214E-03
 11.269  0.643E-03  0.186E-03  0.229E-03  0.229E-03
 11.279  0.686E-03  0.201E-03  0.243E-03  0.243E-03
 11.289  0.729E-03  0.216E-03  0.257E-03  0.257E-03
 11.299  0.773E-03  0.233E-03  0.270E-03  0.270E-03
 11.309  0.817E-03  0.252E-03  0.283E-03  0.283E-03
 11.319  0.862E-03  0.272E-03  0.295E-03  0.295E-03
 11.329  0.907E-03  0.294E-03  0.306E-03  0.306E-03
 11.339  0.953E-03  0.317E-03  0.318E-03  0.318E-03
 11.349  0.998E-03  0.341E-03  0.328E-03  0.328E-03
 11.359  0.104E-02  0.366E-03  0.339E-03  0.339E-03
 11.369  0.109E-02  0.391E-03  0.348E-03  0.348E-03
 11.379  0.113E-02  0.416E-03  0.358E-03  0.358E-03
 11.389  0.117E-02  0.441E-03  0.366E-03  0.366E-03
 11.399  0.121E-02  0.463E-03  0.374E-03  0.374E-03
 11.409  0.125E-02  0.484E-03  0.381E-03  0.381E-03
 11.419  0.128E-02  0.501E-03  0.388E-03  0.388E-03
 11.429  0.130E-02  0.516E-03  0.394E-03  0.394E-03
 11.439  0.132E-02  0.527E-03  0.398E-03  0.398E-03
 11.449  0.134E-02  0.533E-03  0.403E-03  0.403E-03
 11.459  0.135E-02  0.536E-03  0.406E-03  0.406E-03
 11.469  0.135E-02  0.535E-03  0.409E-03  0.409E-03
 11.479  0.136E-02  0.530E-03  0.413E-03  0.413E-03
 11.489  0.135E-02  0.522E-03  0.416E-03  0.416E-03
 11.499  0.135E-02  0.512E-03  0.420E-03  0.420E-03
 11.509  0.135E-02  0.499E-03  0.426E-03  0.426E-03
 11.519  0.135E-02  0.486E-03  0.433E-03  0.433E-03
 11.529  0.136E-02  0.473E-03  0.442E-03  0.442E-03
 11.539  0.137E-02  0.461E-03  0.454E-03  0.454E-03
 11.549  0.139E-02  0.451E-03  0.469E-03  0.469E-03
 11.559  0.142E-02  0.445E-03  0.488E-03  0.488E-03
 11.569  0.146E-02  0.442E-03  0.510E-03  0.510E-03
 11.579  0.152E-02  0.445E-03  0.537E-03  0.537E-03
 11.589  0.159E-02  0.454E-03  0.568E-03  0.568E-03
 11.599  0.168E-02  0.469E-03  0.604E-03  0.604E-03
 11.609  0.178E-02  0.491E-03  0.644E-03  0.644E-03
 11.619  0.190E-02  0.520E-03  0.688E-03  0.688E-03
 11.629  0.203E-02  0.557E-03  0.738E-03  0.738E-03
 11.639  0.218E-02  0.602E-03  0.791E-03  0.791E-03
 11.649  0.235E-02  0.654E-03  0.848E-03  0.848E-03
 11.659  0.253E-02  0.714E-03  0.908E-03  0.908E-03
 11.669  0.272E-02  0.781E-03  0.971E-03  0.971E-03
 11.679  0.293E-02  0.855E-03  0.104E-02  0.104E-02
 11.689  0.314E-02  0.934E-03  0.110E-02  0.110E-02
 11.699  0.336E-02  0.102E-02  0.117E-02  0.117E-02
 11.709  0.358E-02  0.110E-02  0.124E-02  0.124E-02
 11.719  0.380E-02  0.119E-02  0.130E-02  0.130E-02
 11.729  0.401E-02  0.128E-02  0.136E-02  0.136E-02
 11.739  0.422E-02  0.137E-02  0.142E-02  0.142E-02
 11.749  0.441E-02  0.146E-02  0.148E-02  0.148E-02
 11.759  0.459E-02  0.154E-02  0.152E-02  0.152E-02
 11.769  0.475E-02  0.162E-02  0.157E-02  0.157E-02
 11.779  0.489E-02  0.169E-02  0.160E-02  0.160E-02
 11.789  0.500E-02  0.175E-02  0.163E-02  0.163E-02
 11.799  0.508E-02  0.179E-02  0.165E-02  0.165E-02
 11.809  0.514E-02  0.183E-02  0.165E-02  0.165E-02
 11.819  0.516E-02  0.185E-02  0.166E-02  0.166E-02
 11.829  0.515E-02  0.186E-02  0.165E-02  0.165E-02
 11.839  0.512E-02  0.185E-02  0.163E-02  0.163E-02
 11.849  0.505E-02  0.184E-02  0.161E-02  0.161E-02
 11.859  0.496E-02  0.181E-02  0.158E-02  0.158E-02
 11.869  0.485E-02  0.177E-02  0.154E-02  0.154E-02
 11.879  0.472E-02  0.172E-02  0.150E-02  0.150E-02
 11.889  0.458E-02  0.167E-02  0.146E-02  0.146E-02
 11.899  0.443E-02  0.161E-02  0.141E-02  0.141E-02
 11.909  0.429E-02  0.155E-02  0.137E-02  0.137E-02
 11.919  0.414E-02  0.150E-02  0.132E-02  0.132E-02
 11.929  0.402E-02  0.145E-02  0.128E-02  0.128E-02
 11.939  0.390E-02  0.140E-02  0.125E-02  0.125E-02
 11.949  0.382E-02  0.136E-02  0.123E-02  0.123E-02
 11.959  0.376E-02  0.134E-02  0.121E-02  0.121E-02
 11.969  0.373E-02  0.132E-02  0.120E-02  0.120E-02
 11.979  0.375E-02  0.132E-02  0.121E-02  0.121E-02
 11.989  0.380E-02  0.134E-02  0.123E-02  0.123E-02
 11.999  0.390E-02  0.137E-02  0.127E-02  0.127E-02
 12.009  0.404E-02  0.141E-02  0.132E-02  0.132E-02
 12.019  0.423E-02  0.147E-02  0.138E-02  0.138E-02
 12.029  0.446E-02  0.153E-02  0.146E-02  0.146E-02
 12.039  0.473E-02  0.162E-02  0.156E-02  0.156E-02
 12.049  0.504E-02  0.171E-02  0.166E-02  0.166E-02
 12.059  0.538E-02  0.181E-02  0.179E-02  0.179E-02
 12.069  0.575E-02  0.191E-02  0.192E-02  0.192E-02
 12.079  0.614E-02  0.203E-02  0.206E-02  0.206E-02
 12.089  0.655E-02  0.215E-02  0.220E-02  0.220E-02
 12.099  0.697E-02  0.227E-02  0.235E-02  0.235E-02
 12.109  0.739E-02  0.239E-02  0.250E-02  0.250E-02
 12.119  0.781E-02  0.251E-02  0.265E-02  0.265E-02
 12.129  0.821E-02  0.263E-02  0.279E-02  0.279E-02
 12.139  0.860E-02  0.274E-02  0.293E-02  0.293E-02
 12.149  0.896E-02  0.285E-02  0.306E-02  0.306E-02
 12.159  0.929E-02  0.295E-02  0.317E-02  0.317E-02
 12.169  0.959E-02  0.305E-02  0.327E-02  0.327E-02
 12.179  0.984E-02  0.313E-02  0.335E-02  0.335E-02
 12.189  0.100E-01  0.321E-02  0.342E-02  0.342E-02
 12.199  0.102E-01  0.327E-02  0.347E-02  0.347E-02
 12.209  0.103E-01  0.332E-02  0.350E-02  0.350E-02
 12.219  0.104E-01  0.335E-02  0.351E-02  0.351E-02
 12.229  0.104E-01  0.337E-02  0.351E-02  0.351E-02
 12.239  0.104E-01  0.338E-02  0.350E-02  0.350E-02
 12.249  0.103E-01  0.338E-02  0.347E-02  0.347E-02
 12.259  0.102E-01  0.337E-02  0.343E-02  0.343E-02
 12.269  0.101E-01  0.334E-02  0.338E-02  0.338E-02
 12.279  0.998E-02  0.331E-02  0.334E-02  0.334E-02
 12.289  0.985E-02  0.328E-02  0.328E-02  0.328E-02
 12.299  0.971E-02  0.324E-02  0.323E-02  0.323E-02
 12.309  0.959E-02  0.321E-02  0.319E-02  0.319E-02
 12.319  0.948E-02  0.318E-02  0.315E-02  0.315E-02
 12.329  0.940E-02  0.316E-02  0.312E-02  0.312E-02
 12.339  0.934E-02  0.315E-02  0.309E-02  0.309E-02
 12.349  0.932E-02  0.316E-02  0.308E-02  0.308E-02
 12.359  0.934E-02  0.318E-02  0.308E-02  0.308E-02
 12.369  0.939E-02  0.322E-02  0.309E-02  0.309E-02
 12.379  0.948E-02  0.328E-02  0.310E-02  0.310E-02
 12.389  0.961E-02  0.335E-02  0.313E-02  0.313E-02
 12.399  0.976E-02  0.344E-02  0.316E-02  0.316E-02
 12.409  0.994E-02  0.355E-02  0.320E-02  0.320E-02
 12.419  0.101E-01  0.367E-02  0.324E-02  0.324E-02
 12.429  0.104E-01  0.379E-02  0.329E-02  0.329E-02
 12.439  0.106E-01  0.392E-02  0.334E-02  0.334E-02
 12.449  0.108E-01  0.405E-02  0.339E-02  0.339E-02
 12.459  0.111E-01  0.418E-02  0.345E-02  0.345E-02
 12.469  0.113E-01  0.430E-02  0.351E-02  0.351E-02
 12.479  0.116E-01  0.441E-02  0.357E-02  0.357E-02
 12.489  0.118E-01  0.451E-02  0.364E-02  0.364E-02
 12.499  0.120E-01  0.460E-02  0.371E-02  0.371E-02
 12.509  0.123E-01  0.468E-02  0.379E-02  0.379E-02
 12.519  0.125E-01  0.474E-02  0.388E-02  0.388E-02
 12.529  0.127E-01  0.479E-02  0.398E-02  0.398E-02
 12.539  0.130E-01  0.482E-02  0.408E-02  0.408E-02
 12.549  0.132E-01  0.484E-02  0.420E-02  0.420E-02
 12.559  0.135E-01  0.485E-02  0.433E-02  0.433E-02
 12.569  0.138E-01  0.485E-02  0.446E-02  0.446E-02
 12.579  0.141E-01  0.485E-02  0.460E-02  0.460E-02
 12.589  0.144E-01  0.485E-02  0.475E-02  0.475E-02
 12.599  0.147E-01  0.485E-02  0.490E-02  0.490E-02
 12.609  0.150E-01  0.485E-02  0.506E-02  0.506E-02
 12.619  0.153E-01  0.485E-02  0.521E-02  0.521E-02
 12.629  0.156E-01  0.486E-02  0.535E-02  0.535E-02
 12.639  0.159E-01  0.489E-02  0.549E-02  0.549E-02
 12.649  0.162E-01  0.492E-02  0.563E-02  0.563E-02
 12.659  0.165E-01  0.497E-02  0.575E-02  0.575E-02
 12.669  0.167E-01  0.502E-02  0.586E-02  0.586E-02
 12.679  0.170E-01  0.510E-02  0.596E-02  0.596E-02
 12.689  0.173E-01  0.518E-02  0.604E-02  0.604E-02
 12.699  0.175E-01  0.528E-02  0.611E-02  0.611E-02
 12.709  0.177E-01  0.539E-02  0.618E-02  0.618E-02
 12.719  0.180E-01  0.552E-02  0.623E-02  0.623E-02
 12.729  0.182E-01  0.565E-02  0.628E-02  0.628E-02
 12.739  0.184E-01  0.579E-02  0.632E-02  0.632E-02
 12.749  0.187E-01  0.595E-02  0.636E-02  0.636E-02
 12.759  0.189E-01  0.610E-02  0.639E-02  0.639E-02
 12.769  0.191E-01  0.626E-02  0.643E-02  0.643E-02
 12.779  0.194E-01  0.643E-02  0.646E-02  0.646E-02
 12.789  0.196E-01  0.659E-02  0.650E-02  0.650E-02
 12.799  0.198E-01  0.675E-02  0.653E-02  0.653E-02
 12.809  0.200E-01  0.691E-02  0.656E-02  0.656E-02
 12.819  0.202E-01  0.706E-02  0.659E-02  0.659E-02
 12.829  0.204E-01  0.720E-02  0.661E-02  0.661E-02
 12.839  0.206E-01  0.733E-02  0.663E-02  0.663E-02
 12.849  0.207E-01  0.745E-02  0.663E-02  0.663E-02
 12.859  0.208E-01  0.755E-02  0.662E-02  0.662E-02
 12.869  0.208E-01  0.763E-02  0.660E-02  0.660E-02
 12.879  0.208E-01  0.769E-02  0.657E-02  0.657E-02
 12.889  0.208E-01  0.774E-02  0.652E-02  0.652E-02
 12.899  0.207E-01  0.777E-02  0.647E-02  0.647E-02
 12.909  0.206E-01  0.778E-02  0.640E-02  0.640E-02
 12.919  0.204E-01  0.777E-02  0.632E-02  0.632E-02
 12.929  0.202E-01  0.775E-02  0.625E-02  0.625E-02
 12.939  0.201E-01  0.772E-02  0.618E-02  0.618E-02
 12.949  0.199E-01  0.768E-02  0.612E-02  0.612E-02
 12.959  0.198E-01  0.763E-02  0.607E-02  0.607E-02
 12.969  0.197E-01  0.759E-02  0.605E-02  0.605E-02
 12.979  0.197E-01  0.756E-02  0.606E-02  0.606E-02
 12.989  0.197E-01  0.754E-02  0.610E-02  0.610E-02
 12.999  0.199E-01  0.753E-02  0.618E-02  0.618E-02
 13.009  0.202E-01  0.754E-02  0.631E-02  0.631E-02
 13.019  0.205E-01  0.758E-02  0.648E-02  0.648E-02
 13.029  0.210E-01  0.765E-02  0.670E-02  0.670E-02
 13.039  0.217E-01  0.774E-02  0.696E-02  0.696E-02
 13.049  0.224E-01  0.787E-02  0.726E-02  0.726E-02
 13.059  0.232E-01  0.802E-02  0.760E-02  0.760E-02
 13.069  0.241E-01  0.821E-02  0.797E-02  0.797E-02
 13.079  0.252E-01  0.842E-02  0.837E-02  0.837E-02
 13.089  0.262E-01  0.865E-02  0.878E-02  0.878E-02
 13.099  0.273E-01  0.889E-02  0.920E-02  0.920E-02
 13.109  0.284E-01  0.915E-02  0.962E-02  0.962E-02
 13.119  0.295E-01  0.942E-02  0.100E-01  0.100E-01
 13.129  0.305E-01  0.969E-02  0.104E-01  0.104E-01
 13.139  0.315E-01  0.995E-02  0.108E-01  0.108E-01
 13.149  0.325E-01  0.102E-01  0.111E-01  0.111E-01
 13.159  0.333E-01  0.105E-01  0.114E-01  0.114E-01
 13.169  0.340E-01  0.107E-01  0.117E-01  0.117E-01
 13.179  0.346E-01  0.109E-01  0.119E-01  0.119E-01
 13.189  0.351E-01  0.111E-01  0.120E-01  0.120E-01
 13.199  0.354E-01  0.112E-01  0.121E-01  0.121E-01
 13.209  0.357E-01  0.114E-01  0.121E-01  0.121E-01
 13.219  0.358E-01  0.115E-01  0.121E-01  0.121E-01
 13.229  0.358E-01  0.116E-01  0.121E-01  0.121E-01
 13.239  0.357E-01  0.117E-01  0.120E-01  0.120E-01
 13.249  0.355E-01  0.117E-01  0.119E-01  0.119E-01
 13.259  0.353E-01  0.118E-01  0.118E-01  0.118E-01
 13.269  0.350E-01  0.118E-01  0.116E-01  0.116E-01
 13.279  0.347E-01  0.119E-01  0.114E-01  0.114E-01
 13.289  0.344E-01  0.119E-01  0.112E-01  0.112E-01
 13.299  0.341E-01  0.120E-01  0.111E-01  0.111E-01
 13.309  0.339E-01  0.121E-01  0.109E-01  0.109E-01
 13.319  0.336E-01  0.122E-01  0.107E-01  0.107E-01
 13.329  0.335E-01  0.123E-01  0.106E-01  0.106E-01
 13.339  0.334E-01  0.124E-01  0.105E-01  0.105E-01
 13.349  0.335E-01  0.126E-01  0.104E-01  0.104E-01
 13.359  0.336E-01  0.128E-01  0.104E-01  0.104E-01
 13.369  0.339E-01  0.130E-01  0.104E-01  0.104E-01
 13.379  0.343E-01  0.133E-01  0.105E-01  0.105E-01
 13.389  0.348E-01  0.136E-01  0.106E-01  0.106E-01
 13.399  0.355E-01  0.139E-01  0.108E-01  0.108E-01
 13.409  0.364E-01  0.143E-01  0.111E-01  0.111E-01
 13.419  0.374E-01  0.146E-01  0.114E-01  0.114E-01
 13.429  0.385E-01  0.150E-01  0.117E-01  0.117E-01
 13.439  0.398E-01  0.155E-01  0.122E-01  0.122E-01
 13.449  0.413E-01  0.159E-01  0.127E-01  0.127E-01
 13.459  0.429E-01  0.163E-01  0.133E-01  0.133E-01
 13.469  0.447E-01  0.168E-01  0.139E-01  0.139E-01
 13.479  0.466E-01  0.173E-01  0.146E-01  0.146E-01
 13.489  0.486E-01  0.178E-01  0.154E-01  0.154E-01
 13.499  0.508E-01  0.183E-01  0.162E-01  0.162E-01
 13.509  0.530E-01  0.188E-01  0.171E-01  0.171E-01
 13.519  0.554E-01  0.194E-01  0.180E-01  0.180E-01
 13.529  0.578E-01  0.199E-01  0.189E-01  0.189E-01
 13.539  0.602E-01  0.205E-01  0.199E-01  0.199E-01
 13.549  0.627E-01  0.210E-01  0.208E-01  0.208E-01
 13.559  0.651E-01  0.216E-01  0.218E-01  0.218E-01
 13.569  0.675E-01  0.221E-01  0.227E-01  0.227E-01
 13.579  0.697E-01  0.227E-01  0.235E-01  0.235E-01
 13.589  0.719E-01  0.232E-01  0.243E-01  0.243E-01
 13.599  0.739E-01  0.237E-01  0.251E-01  0.251E-01
 13.609  0.757E-01  0.242E-01  0.258E-01  0.258E-01
 13.619  0.773E-01  0.247E-01  0.263E-01  0.263E-01
 13.629  0.787E-01  0.251E-01  0.268E-01  0.268E-01
 13.639  0.798E-01  0.255E-01  0.272E-01  0.272E-01
 13.649  0.807E-01  0.258E-01  0.274E-01  0.274E-01
 13.659  0.813E-01  0.261E-01  0.276E-01  0.276E-01
 13.669  0.817E-01  0.264E-01  0.277E-01  0.277E-01
 13.679  0.819E-01  0.266E-01  0.276E-01  0.276E-01
 13.689  0.818E-01  0.268E-01  0.275E-01  0.275E-01
 13.699  0.816E-01  0.270E-01  0.273E-01  0.273E-01
 13.709  0.813E-01  0.271E-01  0.271E-01  0.271E-01
 13.719  0.808E-01  0.272E-01  0.268E-01  0.268E-01
 13.729  0.803E-01  0.273E-01  0.265E-01  0.265E-01
 13.739  0.798E-01  0.275E-01  0.262E-01  0.262E-01
 13.749  0.793E-01  0.276E-01  0.258E-01  0.258E-01
 13.759  0.788E-01  0.277E-01  0.255E-01  0.255E-01
 13.769  0.785E-01  0.279E-01  0.253E-01  0.253E-01
 13.779  0.784E-01  0.282E-01  0.251E-01  0.251E-01
 13.789  0.784E-01  0.285E-01  0.250E-01  0.250E-01
 13.799  0.786E-01  0.288E-01  0.249E-01  0.249E-01
 13.809  0.791E-01  0.292E-01  0.250E-01  0.250E-01
 13.819  0.799E-01  0.297E-01  0.251E-01  0.251E-01
 13.829  0.809E-01  0.302E-01  0.253E-01  0.253E-01
 13.839  0.821E-01  0.307E-01  0.257E-01  0.257E-01
 13.849  0.836E-01  0.313E-01  0.261E-01  0.261E-01
 13.859  0.853E-01  0.319E-01  0.267E-01  0.267E-01
 13.869  0.872E-01  0.326E-01  0.273E-01  0.273E-01
 13.879  0.892E-01  0.332E-01  0.280E-01  0.280E-01
 13.889  0.913E-01  0.338E-01  0.288E-01  0.288E-01
 13.899  0.935E-01  0.343E-01  0.296E-01  0.296E-01
 13.909  0.956E-01  0.348E-01  0.304E-01  0.304E-01
 13.919  0.977E-01  0.353E-01  0.312E-01  0.312E-01
 13.929  0.997E-01  0.356E-01  0.320E-01  0.320E-01
 13.939  0.101E+00  0.359E-01  0.328E-01  0.328E-01
 13.949  0.103E+00  0.361E-01  0.335E-01  0.335E-01
 13.959  0.104E+00  0.362E-01  0.341E-01  0.341E-01
 13.969  0.106E+00  0.363E-01  0.346E-01  0.346E-01
 13.979  0.106E+00  0.362E-01  0.350E-01  0.350E-01
 13.989  0.107E+00  0.361E-01  0.353E-01  0.353E-01
 13.999  0.107E+00  0.359E-01  0.355E-01  0.355E-01
 14.009  0.107E+00  0.357E-01  0.356E-01  0.356E-01
 14.019  0.107E+00  0.355E-01  0.356E-01  0.356E-01
 14.029  0.106E+00  0.352E-01  0.354E-01  0.354E-01
 14.039  0.105E+00  0.350E-01  0.352E-01  0.352E-01
 14.049  0.104E+00  0.347E-01  0.349E-01  0.349E-01
 14.059  0.103E+00  0.345E-01  0.345E-01  0.345E-01
 14.069  0.102E+00  0.344E-01  0.341E-01  0.341E-01
 14.079  0.102E+00  0.343E-01  0.336E-01  0.336E-01
 14.089  0.101E+00  0.343E-01  0.332E-01  0.332E-01
 14.099  0.998E-01  0.344E-01  0.327E-01  0.327E-01
 14.109  0.992E-01  0.345E-01  0.323E-01  0.323E-01
 14.119  0.987E-01  0.348E-01  0.320E-01  0.320E-01
 14.129  0.985E-01  0.351E-01  0.317E-01  0.317E-01
 14.139  0.985E-01  0.356E-01  0.315E-01  0.315E-01
 14.149  0.987E-01  0.361E-01  0.313E-01  0.313E-01
 14.159  0.992E-01  0.367E-01  0.313E-01  0.313E-01
 14.169  0.999E-01  0.373E-01  0.313E-01  0.313E-01
 14.179  0.101E+00  0.380E-01  0.314E-01  0.314E-01
 14.189  0.102E+00  0.387E-01  0.316E-01  0.316E-01
 14.199  0.103E+00  0.394E-01  0.319E-01  0.319E-01
 14.209  0.104E+00  0.401E-01  0.322E-01  0.322E-01
 14.219  0.106E+00  0.408E-01  0.325E-01  0.325E-01
 14.229  0.107E+00  0.415E-01  0.329E-01  0.329E-01
 14.239  0.109E+00  0.421E-01  0.333E-01  0.333E-01
 14.249  0.110E+00  0.427E-01  0.337E-01  0.337E-01
 14.259  0.111E+00  0.433E-01  0.341E-01  0.341E-01
 14.269  0.113E+00  0.437E-01  0.344E-01  0.344E-01
 14.279  0.114E+00  0.441E-01  0.347E-01  0.347E-01
 14.289  0.115E+00  0.445E-01  0.350E-01  0.350E-01
 14.299  0.115E+00  0.448E-01  0.352E-01  0.352E-01
 14.309  0.116E+00  0.450E-01  0.354E-01  0.354E-01
 14.319  0.116E+00  0.452E-01  0.355E-01  0.355E-01
 14.329  0.116E+00  0.453E-01  0.356E-01  0.356E-01
 14.339  0.117E+00  0.454E-01  0.356E-01  0.356E-01
 14.349  0.117E+00  0.454E-01  0.356E-01  0.356E-01
 14.359  0.117E+00  0.455E-01  0.355E-01  0.355E-01
 14.369  0.116E+00  0.455E-01  0.355E-01  0.355E-01
 14.379  0.116E+00  0.455E-01  0.354E-01  0.354E-01
 14.389  0.116E+00  0.456E-01  0.354E-01  0.354E-01
 14.399  0.116E+00  0.456E-01  0.354E-01  0.354E-01
 14.409  0.116E+00  0.457E-01  0.354E-01  0.354E-01
 14.419  0.117E+00  0.458E-01  0.354E-01  0.354E-01
 14.429  0.117E+00  0.459E-01  0.355E-01  0.355E-01
 14.439  0.117E+00  0.461E-01  0.357E-01  0.357E-01
 14.449  0.118E+00  0.463E-01  0.359E-01  0.359E-01
 14.459  0.119E+00  0.465E-01  0.361E-01  0.361E-01
 14.469  0.120E+00  0.468E-01  0.364E-01  0.364E-01
 14.479  0.121E+00  0.470E-01  0.368E-01  0.368E-01
 14.489  0.122E+00  0.473E-01  0.371E-01  0.371E-01
 14.499  0.123E+00  0.476E-01  0.375E-01  0.375E-01
 14.509  0.124E+00  0.480E-01  0.379E-01  0.379E-01
 14.519  0.125E+00  0.483E-01  0.383E-01  0.383E-01
 14.529  0.126E+00  0.486E-01  0.387E-01  0.387E-01
 14.539  0.127E+00  0.489E-01  0.390E-01  0.390E-01
 14.549  0.128E+00  0.492E-01  0.394E-01  0.394E-01
 14.559  0.129E+00  0.495E-01  0.397E-01  0.397E-01
 14.569  0.130E+00  0.499E-01  0.400E-01  0.400E-01
 14.579  0.131E+00  0.502E-01  0.403E-01  0.403E-01
 14.589  0.132E+00  0.505E-01  0.406E-01  0.406E-01
 14.599  0.132E+00  0.508E-01  0.408E-01  0.408E-01
 14.609  0.133E+00  0.511E-01  0.410E-01  0.410E-01
 14.619  0.134E+00  0.515E-01  0.412E-01  0.412E-01
 14.629  0.135E+00  0.519E-01  0.414E-01  0.414E-01
 14.639  0.135E+00  0.522E-01  0.416E-01  0.416E-01
 14.649  0.136E+00  0.527E-01  0.418E-01  0.418E-01
 14.659  0.137E+00  0.531E-01  0.421E-01  0.421E-01
 14.669  0.138E+00  0.536E-01  0.423E-01  0.423E-01
 14.679  0.139E+00  0.541E-01  0.426E-01  0.426E-01
 14.689  0.140E+00  0.546E-01  0.430E-01  0.430E-01
 14.699  0.142E+00  0.551E-01  0.433E-01  0.433E-01
 14.709  0.143E+00  0.556E-01  0.437E-01  0.437E-01
 14.719  0.144E+00  0.562E-01  0.441E-01  0.441E-01
 14.729  0.146E+00  0.567E-01  0.446E-01  0.446E-01
 14.739  0.147E+00  0.572E-01  0.451E-01  0.451E-01
 14.749  0.149E+00  0.577E-01  0.456E-01  0.456E-01
 14.759  0.150E+00  0.581E-01  0.461E-01  0.461E-01
 14.769  0.152E+00  0.586E-01  0.466E-01  0.466E-01
 14.779  0.153E+00  0.590E-01  0.470E-01  0.470E-01
 14.789  0.154E+00  0.593E-01  0.475E-01  0.475E-01
 14.799  0.156E+00  0.597E-01  0.480E-01  0.480E-01
 14.809  0.157E+00  0.600E-01  0.484E-01  0.484E-01
 14.819  0.158E+00  0.602E-01  0.488E-01  0.488E-01
 14.829  0.159E+00  0.605E-01  0.491E-01  0.491E-01
 14.839  0.160E+00  0.608E-01  0.495E-01  0.495E-01
 14.849  0.161E+00  0.610E-01  0.498E-01  0.498E-01
 14.859  0.161E+00  0.613E-01  0.500E-01  0.500E-01
 14.869  0.162E+00  0.615E-01  0.502E-01  0.502E-01
 14.879  0.163E+00  0.618E-01  0.504E-01  0.504E-01
 14.889  0.163E+00  0.620E-01  0.505E-01  0.505E-01
 14.899  0.163E+00  0.622E-01  0.506E-01  0.506E-01
 14.909  0.164E+00  0.625E-01  0.506E-01  0.506E-01
 14.919  0.164E+00  0.626E-01  0.506E-01  0.506E-01
 14.929  0.164E+00  0.628E-01  0.504E-01  0.504E-01
 14.939  0.163E+00  0.629E-01  0.503E-01  0.503E-01
 14.949  0.163E+00  0.630E-01  0.500E-01  0.500E-01
 14.959  0.162E+00  0.630E-01  0.497E-01  0.497E-01
 14.969  0.162E+00  0.629E-01  0.493E-01  0.493E-01
 14.979  0.160E+00  0.627E-01  0.489E-01  0.489E-01
 14.989  0.159E+00  0.625E-01  0.484E-01  0.484E-01
 14.999  0.158E+00  0.622E-01  0.479E-01  0.479E-01
 15.009  0.156E+00  0.619E-01  0.473E-01  0.473E-01
 15.019  0.155E+00  0.615E-01  0.467E-01  0.467E-01
 15.029  0.153E+00  0.610E-01  0.461E-01  0.461E-01
 15.039  0.152E+00  0.606E-01  0.455E-01  0.455E-01
 15.049  0.150E+00  0.602E-01  0.449E-01  0.449E-01
 15.059  0.148E+00  0.598E-01  0.443E-01  0.443E-01
 15.069  0.147E+00  0.594E-01  0.438E-01  0.438E-01
 15.079  0.146E+00  0.591E-01  0.433E-01  0.433E-01
 15.089  0.145E+00  0.588E-01  0.429E-01  0.429E-01
 15.099  0.144E+00  0.587E-01  0.425E-01  0.425E-01
 15.109  0.143E+00  0.586E-01  0.422E-01  0.422E-01
 15.119  0.142E+00  0.586E-01  0.420E-01  0.420E-01
 15.129  0.142E+00  0.587E-01  0.417E-01  0.417E-01
 15.139  0.142E+00  0.588E-01  0.415E-01  0.415E-01
 15.149  0.142E+00  0.590E-01  0.414E-01  0.414E-01
 15.159  0.142E+00  0.593E-01  0.412E-01  0.412E-01
 15.169  0.142E+00  0.595E-01  0.411E-01  0.411E-01
 15.179  0.142E+00  0.598E-01  0.410E-01  0.410E-01
 15.189  0.142E+00  0.600E-01  0.409E-01  0.409E-01
 15.199  0.142E+00  0.602E-01  0.407E-01  0.407E-01
 15.209  0.142E+00  0.604E-01  0.406E-01  0.406E-01
 15.219  0.141E+00  0.605E-01  0.404E-01  0.404E-01
 15.229  0.141E+00  0.605E-01  0.401E-01  0.401E-01
 15.239  0.140E+00  0.604E-01  0.399E-01  0.399E-01
 15.249  0.139E+00  0.602E-01  0.396E-01  0.396E-01
 15.259  0.138E+00  0.599E-01  0.393E-01  0.393E-01
 15.269  0.137E+00  0.595E-01  0.389E-01  0.389E-01
 15.279  0.136E+00  0.589E-01  0.385E-01  0.385E-01
 15.289  0.135E+00  0.583E-01  0.382E-01  0.382E-01
 15.299  0.133E+00  0.577E-01  0.378E-01  0.378E-01
 15.309  0.132E+00  0.569E-01  0.374E-01  0.374E-01
 15.319  0.130E+00  0.561E-01  0.371E-01  0.371E-01
 15.329  0.129E+00  0.553E-01  0.367E-01  0.367E-01
 15.339  0.127E+00  0.545E-01  0.365E-01  0.365E-01
 15.349  0.126E+00  0.537E-01  0.363E-01  0.363E-01
 15.359  0.125E+00  0.530E-01  0.361E-01  0.361E-01
 15.369  0.124E+00  0.523E-01  0.361E-01  0.361E-01
 15.379  0.124E+00  0.517E-01  0.361E-01  0.361E-01
 15.389  0.124E+00  0.512E-01  0.362E-01  0.362E-01
 15.399  0.124E+00  0.508E-01  0.364E-01  0.364E-01
 15.409  0.124E+00  0.506E-01  0.367E-01  0.367E-01
 15.419  0.125E+00  0.505E-01  0.371E-01  0.371E-01
 15.429  0.126E+00  0.506E-01  0.376E-01  0.376E-01
 15.439  0.127E+00  0.508E-01  0.381E-01  0.381E-01
 15.449  0.129E+00  0.512E-01  0.387E-01  0.387E-01
 15.459  0.130E+00  0.517E-01  0.393E-01  0.393E-01
 15.469  0.132E+00  0.523E-01  0.400E-01  0.400E-01
 15.479  0.135E+00  0.531E-01  0.407E-01  0.407E-01
 15.489  0.137E+00  0.540E-01  0.414E-01  0.414E-01
 15.499  0.139E+00  0.550E-01  0.420E-01  0.420E-01
 15.509  0.141E+00  0.561E-01  0.426E-01  0.426E-01
 15.519  0.143E+00  0.571E-01  0.432E-01  0.432E-01
 15.529  0.146E+00  0.582E-01  0.436E-01  0.436E-01
 15.539  0.147E+00  0.593E-01  0.440E-01  0.440E-01
 15.549  0.149E+00  0.603E-01  0.443E-01  0.443E-01
 15.559  0.150E+00  0.613E-01  0.446E-01  0.446E-01
 15.569  0.151E+00  0.621E-01  0.447E-01  0.447E-01
 15.579  0.152E+00  0.629E-01  0.447E-01  0.447E-01
 15.589  0.153E+00  0.634E-01  0.446E-01  0.446E-01
 15.599  0.153E+00  0.638E-01  0.445E-01  0.445E-01
 15.609  0.152E+00  0.640E-01  0.442E-01  0.442E-01
 15.619  0.152E+00  0.641E-01  0.439E-01  0.439E-01
 15.629  0.151E+00  0.639E-01  0.435E-01  0.435E-01
 15.639  0.150E+00  0.635E-01  0.431E-01  0.431E-01
 15.649  0.148E+00  0.630E-01  0.426E-01  0.426E-01
 15.659  0.146E+00  0.622E-01  0.420E-01  0.420E-01
 15.669  0.144E+00  0.613E-01  0.414E-01  0.414E-01
 15.679  0.142E+00  0.603E-01  0.408E-01  0.408E-01
 15.689  0.140E+00  0.591E-01  0.402E-01  0.402E-01
 15.699  0.137E+00  0.578E-01  0.396E-01  0.396E-01
 15.709  0.134E+00  0.564E-01  0.390E-01  0.390E-01
 15.719  0.132E+00  0.550E-01  0.384E-01  0.384E-01
 15.729  0.129E+00  0.536E-01  0.378E-01  0.378E-01
 15.739  0.127E+00  0.522E-01  0.372E-01  0.372E-01
 15.749  0.124E+00  0.508E-01  0.366E-01  0.366E-01
 15.759  0.122E+00  0.495E-01  0.361E-01  0.361E-01
 15.769  0.120E+00  0.483E-01  0.356E-01  0.356E-01
 15.779  0.118E+00  0.472E-01  0.352E-01  0.352E-01
 15.789  0.116E+00  0.462E-01  0.348E-01  0.348E-01
 15.799  0.114E+00  0.453E-01  0.345E-01  0.345E-01
 15.809  0.113E+00  0.446E-01  0.343E-01  0.343E-01
 15.819  0.112E+00  0.440E-01  0.341E-01  0.341E-01
 15.829  0.111E+00  0.435E-01  0.339E-01  0.339E-01
 15.839  0.111E+00  0.431E-01  0.339E-01  0.339E-01
 15.849  0.111E+00  0.429E-01  0.338E-01  0.338E-01
 15.859  0.110E+00  0.427E-01  0.339E-01  0.339E-01
 15.869  0.110E+00  0.426E-01  0.339E-01  0.339E-01
 15.879  0.111E+00  0.425E-01  0.340E-01  0.340E-01
 15.889  0.111E+00  0.425E-01  0.342E-01  0.342E-01
 15.899  0.111E+00  0.426E-01  0.343E-01  0.343E-01
 15.909  0.112E+00  0.426E-01  0.345E-01  0.345E-01
 15.919  0.112E+00  0.427E-01  0.347E-01  0.347E-01
 15.929  0.113E+00  0.427E-01  0.350E-01  0.350E-01
 15.939  0.113E+00  0.428E-01  0.352E-01  0.352E-01
 15.949  0.114E+00  0.428E-01  0.354E-01  0.354E-01
 15.959  0.114E+00  0.429E-01  0.357E-01  0.357E-01
 15.969  0.115E+00  0.430E-01  0.360E-01  0.360E-01
 15.979  0.116E+00  0.431E-01  0.363E-01  0.363E-01
 15.989  0.116E+00  0.432E-01  0.366E-01  0.366E-01
 15.999  0.117E+00  0.434E-01  0.369E-01  0.369E-01
 16.009  0.118E+00  0.437E-01  0.372E-01  0.372E-01
 16.019  0.119E+00  0.440E-01  0.376E-01  0.376E-01
 16.029  0.120E+00  0.443E-01  0.379E-01  0.379E-01
 16.039  0.121E+00  0.447E-01  0.383E-01  0.383E-01
 16.049  0.123E+00  0.452E-01  0.388E-01  0.388E-01
 16.059  0.124E+00  0.458E-01  0.392E-01  0.392E-01
 16.069  0.126E+00  0.463E-01  0.396E-01  0.396E-01
 16.079  0.127E+00  0.469E-01  0.401E-01  0.401E-01
 16.089  0.129E+00  0.476E-01  0.406E-01  0.406E-01
 16.099  0.130E+00  0.482E-01  0.410E-01  0.410E-01
 16.109  0.132E+00  0.488E-01  0.415E-01  0.415E-01
 16.119  0.133E+00  0.494E-01  0.420E-01  0.420E-01
 16.129  0.135E+00  0.500E-01  0.425E-01  0.425E-01
 16.139  0.137E+00  0.506E-01  0.430E-01  0.430E-01
 16.149  0.138E+00  0.511E-01  0.435E-01  0.435E-01
 16.159  0.140E+00  0.516E-01  0.441E-01  0.441E-01
 16.169  0.141E+00  0.520E-01  0.446E-01  0.446E-01
 16.179  0.143E+00  0.524E-01  0.452E-01  0.452E-01
 16.189  0.144E+00  0.528E-01  0.458E-01  0.458E-01
 16.199  0.146E+00  0.532E-01  0.465E-01  0.465E-01
 16.209  0.148E+00  0.536E-01  0.471E-01  0.471E-01
 16.219  0.150E+00  0.540E-01  0.479E-01  0.479E-01
 16.229  0.152E+00  0.544E-01  0.486E-01  0.486E-01
 16.239  0.154E+00  0.548E-01  0.495E-01  0.495E-01
 16.249  0.156E+00  0.553E-01  0.503E-01  0.503E-01
 16.259  0.158E+00  0.559E-01  0.512E-01  0.512E-01
 16.269  0.161E+00  0.565E-01  0.522E-01  0.522E-01
 16.279  0.164E+00  0.571E-01  0.532E-01  0.532E-01
 16.289  0.166E+00  0.578E-01  0.543E-01  0.543E-01
 16.299  0.169E+00  0.586E-01  0.554E-01  0.554E-01
 16.309  0.172E+00  0.594E-01  0.565E-01  0.565E-01
 16.319  0.176E+00  0.603E-01  0.577E-01  0.577E-01
 16.329  0.179E+00  0.612E-01  0.589E-01  0.589E-01
 16.339  0.182E+00  0.621E-01  0.601E-01  0.601E-01
 16.349  0.186E+00  0.631E-01  0.613E-01  0.613E-01
 16.359  0.189E+00  0.641E-01  0.625E-01  0.625E-01
 16.369  0.193E+00  0.651E-01  0.637E-01  0.637E-01
 16.379  0.196E+00  0.661E-01  0.649E-01  0.649E-01
 16.389  0.199E+00  0.670E-01  0.661E-01  0.661E-01
 16.399  0.202E+00  0.680E-01  0.672E-01  0.672E-01
 16.409  0.206E+00  0.688E-01  0.683E-01  0.683E-01
 16.419  0.208E+00  0.697E-01  0.694E-01  0.694E-01
 16.429  0.211E+00  0.705E-01  0.704E-01  0.704E-01
 16.439  0.214E+00  0.712E-01  0.714E-01  0.714E-01
 16.449  0.216E+00  0.718E-01  0.723E-01  0.723E-01
 16.459  0.219E+00  0.724E-01  0.732E-01  0.732E-01
 16.469  0.221E+00  0.728E-01  0.740E-01  0.740E-01
 16.479  0.223E+00  0.733E-01  0.748E-01  0.748E-01
 16.489  0.225E+00  0.736E-01  0.756E-01  0.756E-01
 16.499  0.226E+00  0.739E-01  0.763E-01  0.763E-01
 16.509  0.228E+00  0.741E-01  0.770E-01  0.770E-01
 16.519  0.230E+00  0.743E-01  0.776E-01  0.776E-01
 16.529  0.231E+00  0.744E-01  0.783E-01  0.783E-01
 16.539  0.232E+00  0.746E-01  0.789E-01  0.789E-01
 16.549  0.234E+00  0.746E-01  0.795E-01  0.795E-01
 16.559  0.235E+00  0.747E-01  0.802E-01  0.802E-01
 16.569  0.236E+00  0.747E-01  0.808E-01  0.808E-01
 16.579  0.238E+00  0.748E-01  0.815E-01  0.815E-01
 16.589  0.239E+00  0.748E-01  0.821E-01  0.821E-01
 16.599  0.240E+00  0.748E-01  0.828E-01  0.828E-01
 16.609  0.242E+00  0.748E-01  0.835E-01  0.835E-01
 16.619  0.243E+00  0.748E-01  0.843E-01  0.843E-01
 16.629  0.245E+00  0.747E-01  0.850E-01  0.850E-01
 16.639  0.246E+00  0.747E-01  0.858E-01  0.858E-01
 16.649  0.248E+00  0.746E-01  0.866E-01  0.866E-01
 16.659  0.250E+00  0.745E-01  0.875E-01  0.875E-01
 16.669  0.251E+00  0.744E-01  0.884E-01  0.884E-01
 16.679  0.253E+00  0.743E-01  0.892E-01  0.892E-01
 16.689  0.255E+00  0.742E-01  0.902E-01  0.902E-01
 16.699  0.256E+00  0.741E-01  0.911E-01  0.911E-01
 16.709  0.258E+00  0.739E-01  0.921E-01  0.921E-01
 16.719  0.260E+00  0.738E-01  0.932E-01  0.932E-01
 16.729  0.262E+00  0.737E-01  0.942E-01  0.942E-01
 16.739  0.264E+00  0.736E-01  0.953E-01  0.953E-01
 16.749  0.266E+00  0.735E-01  0.965E-01  0.965E-01
 16.759  0.269E+00  0.734E-01  0.976E-01  0.976E-01
 16.769  0.271E+00  0.734E-01  0.989E-01  0.989E-01
 16.779  0.274E+00  0.734E-01  0.100E+00  0.100E+00
 16.789  0.276E+00  0.734E-01  0.101E+00  0.101E+00
 16.799  0.279E+00  0.735E-01  0.103E+00  0.103E+00
 16.809  0.282E+00  0.735E-01  0.104E+00  0.104E+00
 16.819  0.285E+00  0.737E-01  0.106E+00  0.106E+00
 16.829  0.288E+00  0.738E-01  0.107E+00  0.107E+00
 16.839  0.291E+00  0.740E-01  0.109E+00  0.109E+00
 16.849  0.295E+00  0.741E-01  0.110E+00  0.110E+00
 16.859  0.298E+00  0.743E-01  0.112E+00  0.112E+00
 16.869  0.302E+00  0.746E-01  0.114E+00  0.114E+00
 16.879  0.306E+00  0.749E-01  0.116E+00  0.116E+00
 16.889  0.310E+00  0.752E-01  0.118E+00  0.118E+00
 16.899  0.315E+00  0.755E-01  0.120E+00  0.120E+00
 16.909  0.320E+00  0.760E-01  0.122E+00  0.122E+00
 16.919  0.325E+00  0.765E-01  0.124E+00  0.124E+00
 16.929  0.330E+00  0.771E-01  0.127E+00  0.127E+00
 16.939  0.336E+00  0.778E-01  0.129E+00  0.129E+00
 16.949  0.342E+00  0.785E-01  0.132E+00  0.132E+00
 16.959  0.349E+00  0.794E-01  0.135E+00  0.135E+00
 16.969  0.355E+00  0.804E-01  0.138E+00  0.138E+00
 16.979  0.363E+00  0.815E-01  0.141E+00  0.141E+00
 16.989  0.370E+00  0.827E-01  0.144E+00  0.144E+00
 16.999  0.378E+00  0.840E-01  0.147E+00  0.147E+00
 17.009  0.385E+00  0.853E-01  0.150E+00  0.150E+00
 17.019  0.393E+00  0.867E-01  0.153E+00  0.153E+00
 17.029  0.401E+00  0.881E-01  0.156E+00  0.156E+00
 17.039  0.409E+00  0.896E-01  0.160E+00  0.160E+00
 17.049  0.416E+00  0.910E-01  0.163E+00  0.163E+00
 17.059  0.424E+00  0.924E-01  0.166E+00  0.166E+00
 17.069  0.431E+00  0.937E-01  0.169E+00  0.169E+00
 17.079  0.438E+00  0.950E-01  0.172E+00  0.172E+00
 17.089  0.445E+00  0.962E-01  0.174E+00  0.174E+00
 17.099  0.451E+00  0.972E-01  0.177E+00  0.177E+00
 17.109  0.458E+00  0.982E-01  0.180E+00  0.180E+00
 17.119  0.463E+00  0.990E-01  0.182E+00  0.182E+00
 17.129  0.469E+00  0.998E-01  0.185E+00  0.185E+00
 17.139  0.474E+00  0.100E+00  0.187E+00  0.187E+00
 17.149  0.479E+00  0.101E+00  0.189E+00  0.189E+00
 17.159  0.484E+00  0.101E+00  0.191E+00  0.191E+00
 17.169  0.489E+00  0.101E+00  0.194E+00  0.194E+00
 17.179  0.493E+00  0.101E+00  0.196E+00  0.196E+00
 17.189  0.496E+00  0.101E+00  0.198E+00  0.198E+00
 17.199  0.500E+00  0.101E+00  0.199E+00  0.199E+00
 17.209  0.503E+00  0.101E+00  0.201E+00  0.201E+00
 17.219  0.505E+00  0.101E+00  0.202E+00  0.202E+00
 17.229  0.507E+00  0.100E+00  0.203E+00  0.203E+00
 17.239  0.509E+00  0.998E-01  0.204E+00  0.204E+00
 17.249  0.509E+00  0.991E-01  0.205E+00  0.205E+00
 17.259  0.509E+00  0.983E-01  0.205E+00  0.205E+00
 17.269  0.508E+00  0.974E-01  0.205E+00  0.205E+00
 17.279  0.505E+00  0.963E-01  0.205E+00  0.205E+00
 17.289  0.502E+00  0.951E-01  0.204E+00  0.204E+00
 17.299  0.498E+00  0.937E-01  0.202E+00  0.202E+00
 17.309  0.493E+00  0.921E-01  0.200E+00  0.200E+00
 17.319  0.486E+00  0.904E-01  0.198E+00  0.198E+00
 17.329  0.479E+00  0.885E-01  0.195E+00  0.195E+00
 17.339  0.470E+00  0.865E-01  0.192E+00  0.192E+00
 17.349  0.461E+00  0.844E-01  0.188E+00  0.188E+00
 17.359  0.450E+00  0.822E-01  0.184E+00  0.184E+00
 17.369  0.439E+00  0.798E-01  0.180E+00  0.180E+00
 17.379  0.427E+00  0.775E-01  0.175E+00  0.175E+00
 17.389  0.415E+00  0.751E-01  0.170E+00  0.170E+00
 17.399  0.402E+00  0.727E-01  0.165E+00  0.165E+00
 17.409  0.389E+00  0.703E-01  0.159E+00  0.159E+00
 17.419  0.376E+00  0.680E-01  0.154E+00  0.154E+00
 17.429  0.363E+00  0.658E-01  0.149E+00  0.149E+00
 17.439  0.350E+00  0.636E-01  0.143E+00  0.143E+00
 17.449  0.338E+00  0.615E-01  0.138E+00  0.138E+00
 17.459  0.325E+00  0.596E-01  0.133E+00  0.133E+00
 17.469  0.313E+00  0.578E-01  0.128E+00  0.128E+00
 17.479  0.302E+00  0.560E-01  0.123E+00  0.123E+00
 17.489  0.290E+00  0.544E-01  0.118E+00  0.118E+00
 17.499  0.279E+00  0.529E-01  0.113E+00  0.113E+00
 17.509  0.269E+00  0.515E-01  0.109E+00  0.109E+00
 17.519  0.258E+00  0.502E-01  0.104E+00  0.104E+00
 17.529  0.248E+00  0.489E-01  0.996E-01  0.996E-01
 17.539  0.238E+00  0.478E-01  0.953E-01  0.953E-01
 17.549  0.229E+00  0.466E-01  0.909E-01  0.909E-01
 17.559  0.219E+00  0.456E-01  0.866E-01  0.866E-01
 17.569  0.209E+00  0.446E-01  0.824E-01  0.824E-01
 17.579  0.200E+00  0.436E-01  0.781E-01  0.781E-01
 17.589  0.191E+00  0.427E-01  0.739E-01  0.739E-01
 17.599  0.181E+00  0.418E-01  0.697E-01  0.697E-01
 17.609  0.172E+00  0.410E-01  0.655E-01  0.655E-01
 17.619  0.163E+00  0.402E-01  0.614E-01  0.614E-01
 17.629  0.154E+00  0.394E-01  0.573E-01  0.573E-01
 17.639  0.145E+00  0.386E-01  0.533E-01  0.533E-01
 17.649  0.137E+00  0.379E-01  0.494E-01  0.494E-01
 17.659  0.129E+00  0.372E-01  0.457E-01  0.457E-01
 17.669  0.121E+00  0.365E-01  0.421E-01  0.421E-01
 17.679  0.113E+00  0.359E-01  0.386E-01  0.386E-01
 17.689  0.106E+00  0.353E-01  0.353E-01  0.353E-01
 17.699  0.990E-01  0.346E-01  0.322E-01  0.322E-01
 17.709  0.926E-01  0.340E-01  0.293E-01  0.293E-01
 17.719  0.866E-01  0.334E-01  0.266E-01  0.266E-01
 17.729  0.811E-01  0.328E-01  0.241E-01  0.241E-01
 17.739  0.760E-01  0.323E-01  0.218E-01  0.218E-01
 17.749  0.713E-01  0.317E-01  0.198E-01  0.198E-01
 17.759  0.671E-01  0.312E-01  0.180E-01  0.180E-01
 17.769  0.634E-01  0.307E-01  0.163E-01  0.163E-01
 17.779  0.601E-01  0.302E-01  0.149E-01  0.149E-01
 17.789  0.572E-01  0.297E-01  0.137E-01  0.137E-01
 17.799  0.548E-01  0.293E-01  0.128E-01  0.128E-01
 17.809  0.529E-01  0.290E-01  0.120E-01  0.120E-01
 17.819  0.514E-01  0.287E-01  0.114E-01  0.114E-01
 17.829  0.503E-01  0.284E-01  0.110E-01  0.110E-01
 17.839  0.497E-01  0.282E-01  0.108E-01  0.108E-01
 17.849  0.495E-01  0.280E-01  0.107E-01  0.107E-01
 17.859  0.497E-01  0.279E-01  0.109E-01  0.109E-01
 17.869  0.503E-01  0.278E-01  0.113E-01  0.113E-01
 17.879  0.513E-01  0.278E-01  0.118E-01  0.118E-01
 17.889  0.528E-01  0.277E-01  0.125E-01  0.125E-01
 17.899  0.545E-01  0.278E-01  0.134E-01  0.134E-01
 17.909  0.567E-01  0.278E-01  0.145E-01  0.145E-01
 17.919  0.592E-01  0.278E-01  0.157E-01  0.157E-01
 17.929  0.619E-01  0.279E-01  0.170E-01  0.170E-01
 17.939  0.650E-01  0.279E-01  0.186E-01  0.186E-01
 17.949  0.684E-01  0.280E-01  0.202E-01  0.202E-01
 17.959  0.720E-01  0.280E-01  0.220E-01  0.220E-01
 17.969  0.758E-01  0.281E-01  0.238E-01  0.238E-01
 17.979  0.797E-01  0.282E-01  0.258E-01  0.258E-01
 17.989  0.838E-01  0.283E-01  0.277E-01  0.277E-01
 17.999  0.880E-01  0.285E-01  0.298E-01  0.298E-01
 18.009  0.922E-01  0.286E-01  0.318E-01  0.318E-01
 18.019  0.964E-01  0.288E-01  0.338E-01  0.338E-01
 18.029  0.101E+00  0.290E-01  0.358E-01  0.358E-01
 18.039  0.105E+00  0.293E-01  0.377E-01  0.377E-01
 18.049  0.109E+00  0.296E-01  0.395E-01  0.395E-01
 18.059  0.112E+00  0.299E-01  0.413E-01  0.413E-01
 18.069  0.116E+00  0.303E-01  0.429E-01  0.429E-01
 18.079  0.119E+00  0.306E-01  0.444E-01  0.444E-01
 18.089  0.122E+00  0.311E-01  0.457E-01  0.457E-01
 18.099  0.125E+00  0.315E-01  0.469E-01  0.469E-01
 18.109  0.128E+00  0.319E-01  0.480E-01  0.480E-01
 18.119  0.130E+00  0.323E-01  0.489E-01  0.489E-01
 18.129  0.132E+00  0.327E-01  0.496E-01  0.496E-01
 18.139  0.133E+00  0.330E-01  0.502E-01  0.502E-01
 18.149  0.135E+00  0.334E-01  0.507E-01  0.507E-01
 18.159  0.136E+00  0.336E-01  0.510E-01  0.510E-01
 18.169  0.136E+00  0.339E-01  0.512E-01  0.512E-01
 18.179  0.137E+00  0.340E-01  0.513E-01  0.513E-01
 18.189  0.137E+00  0.341E-01  0.513E-01  0.513E-01
 18.199  0.136E+00  0.342E-01  0.512E-01  0.512E-01
 18.209  0.136E+00  0.341E-01  0.510E-01  0.510E-01
 18.219  0.135E+00  0.340E-01  0.507E-01  0.507E-01
 18.229  0.135E+00  0.339E-01  0.504E-01  0.504E-01
 18.239  0.134E+00  0.336E-01  0.500E-01  0.500E-01
 18.249  0.133E+00  0.334E-01  0.496E-01  0.496E-01
 18.259  0.131E+00  0.331E-01  0.492E-01  0.492E-01
 18.269  0.130E+00  0.328E-01  0.487E-01  0.487E-01
 18.279  0.129E+00  0.324E-01  0.483E-01  0.483E-01
 18.289  0.128E+00  0.320E-01  0.478E-01  0.478E-01
 18.299  0.127E+00  0.317E-01  0.474E-01  0.474E-01
 18.309  0.125E+00  0.313E-01  0.470E-01  0.470E-01
 18.319  0.124E+00  0.310E-01  0.467E-01  0.467E-01
 18.329  0.124E+00  0.307E-01  0.464E-01  0.464E-01
 18.339  0.123E+00  0.305E-01  0.462E-01  0.462E-01
 18.349  0.122E+00  0.303E-01  0.461E-01  0.461E-01
 18.359  0.122E+00  0.302E-01  0.460E-01  0.460E-01
 18.369  0.122E+00  0.302E-01  0.460E-01  0.460E-01
 18.379  0.122E+00  0.302E-01  0.460E-01  0.460E-01
 18.389  0.123E+00  0.304E-01  0.461E-01  0.461E-01
 18.399  0.123E+00  0.306E-01  0.463E-01  0.463E-01
 18.409  0.124E+00  0.309E-01  0.466E-01  0.466E-01
 18.419  0.125E+00  0.314E-01  0.468E-01  0.468E-01
 18.429  0.126E+00  0.319E-01  0.472E-01  0.472E-01
 18.439  0.128E+00  0.325E-01  0.475E-01  0.475E-01
 18.449  0.129E+00  0.333E-01  0.479E-01  0.479E-01
 18.459  0.131E+00  0.341E-01  0.483E-01  0.483E-01
 18.469  0.132E+00  0.350E-01  0.487E-01  0.487E-01
 18.479  0.134E+00  0.361E-01  0.491E-01  0.491E-01
 18.489  0.136E+00  0.373E-01  0.495E-01  0.495E-01
 18.499  0.138E+00  0.385E-01  0.498E-01  0.498E-01
 18.509  0.140E+00  0.400E-01  0.502E-01  0.502E-01
 18.519  0.143E+00  0.415E-01  0.506E-01  0.506E-01
 18.529  0.145E+00  0.432E-01  0.510E-01  0.510E-01
 18.539  0.148E+00  0.450E-01  0.513E-01  0.513E-01
 18.549  0.150E+00  0.470E-01  0.517E-01  0.517E-01
 18.559  0.153E+00  0.492E-01  0.521E-01  0.521E-01
 18.569  0.156E+00  0.515E-01  0.525E-01  0.525E-01
 18.579  0.160E+00  0.539E-01  0.528E-01  0.528E-01
 18.589  0.163E+00  0.566E-01  0.532E-01  0.532E-01
 18.599  0.167E+00  0.593E-01  0.536E-01  0.536E-01
 18.609  0.170E+00  0.622E-01  0.540E-01  0.540E-01
 18.619  0.174E+00  0.653E-01  0.544E-01  0.544E-01
 18.629  0.178E+00  0.684E-01  0.548E-01  0.548E-01
 18.639  0.182E+00  0.717E-01  0.551E-01  0.551E-01
 18.649  0.186E+00  0.750E-01  0.555E-01  0.555E-01
 18.659  0.190E+00  0.784E-01  0.558E-01  0.558E-01
 18.669  0.194E+00  0.818E-01  0.561E-01  0.561E-01
 18.679  0.198E+00  0.852E-01  0.564E-01  0.564E-01
 18.689  0.202E+00  0.885E-01  0.566E-01  0.566E-01
 18.699  0.205E+00  0.919E-01  0.568E-01  0.568E-01
 18.709  0.209E+00  0.951E-01  0.569E-01  0.569E-01
 18.719  0.212E+00  0.983E-01  0.571E-01  0.571E-01
 18.729  0.216E+00  0.101E+00  0.572E-01  0.572E-01
 18.739  0.219E+00  0.104E+00  0.573E-01  0.573E-01
 18.749  0.221E+00  0.107E+00  0.573E-01  0.573E-01
 18.759  0.224E+00  0.109E+00  0.573E-01  0.573E-01
 18.769  0.226E+00  0.112E+00  0.573E-01  0.573E-01
 18.779  0.228E+00  0.114E+00  0.573E-01  0.573E-01
 18.789  0.230E+00  0.115E+00  0.573E-01  0.573E-01
 18.799  0.231E+00  0.117E+00  0.572E-01  0.572E-01
 18.809  0.233E+00  0.118E+00  0.571E-01  0.571E-01
 18.819  0.234E+00  0.120E+00  0.570E-01  0.570E-01
 18.829  0.234E+00  0.120E+00  0.569E-01  0.569E-01
 18.839  0.235E+00  0.121E+00  0.568E-01  0.568E-01
 18.849  0.235E+00  0.122E+00  0.566E-01  0.566E-01
 18.859  0.235E+00  0.122E+00  0.565E-01  0.565E-01
 18.869  0.235E+00  0.123E+00  0.564E-01  0.564E-01
 18.879  0.235E+00  0.123E+00  0.563E-01  0.563E-01
 18.889  0.236E+00  0.123E+00  0.563E-01  0.563E-01
 18.899  0.236E+00  0.123E+00  0.563E-01  0.563E-01
 18.909  0.236E+00  0.124E+00  0.563E-01  0.563E-01
 18.919  0.237E+00  0.124E+00  0.564E-01  0.564E-01
 18.929  0.238E+00  0.124E+00  0.566E-01  0.566E-01
 18.939  0.239E+00  0.125E+00  0.569E-01  0.569E-01
 18.949  0.240E+00  0.126E+00  0.572E-01  0.572E-01
 18.959  0.242E+00  0.126E+00  0.576E-01  0.576E-01
 18.969  0.243E+00  0.127E+00  0.580E-01  0.580E-01
 18.979  0.245E+00  0.128E+00  0.585E-01  0.585E-01
 18.989  0.248E+00  0.130E+00  0.590E-01  0.590E-01
 18.999  0.250E+00  0.131E+00  0.596E-01  0.596E-01
 19.009  0.252E+00  0.132E+00  0.601E-01  0.601E-01
 19.019  0.254E+00  0.133E+00  0.606E-01  0.606E-01
 19.029  0.256E+00  0.134E+00  0.611E-01  0.611E-01
 19.039  0.258E+00  0.135E+00  0.615E-01  0.615E-01
 19.049  0.260E+00  0.136E+00  0.619E-01  0.619E-01
 19.059  0.262E+00  0.137E+00  0.621E-01  0.621E-01
 19.069  0.263E+00  0.138E+00  0.623E-01  0.623E-01
 19.079  0.264E+00  0.139E+00  0.623E-01  0.623E-01
 19.089  0.264E+00  0.140E+00  0.623E-01  0.623E-01
 19.099  0.264E+00  0.140E+00  0.621E-01  0.621E-01
 19.109  0.264E+00  0.140E+00  0.618E-01  0.618E-01
 19.119  0.263E+00  0.140E+00  0.614E-01  0.614E-01
 19.129  0.262E+00  0.140E+00  0.609E-01  0.609E-01
 19.139  0.261E+00  0.140E+00  0.604E-01  0.604E-01
 19.149  0.260E+00  0.140E+00  0.597E-01  0.597E-01
 19.159  0.258E+00  0.140E+00  0.591E-01  0.591E-01
 19.169  0.257E+00  0.140E+00  0.583E-01  0.583E-01
 19.179  0.255E+00  0.140E+00  0.576E-01  0.576E-01
 19.189  0.253E+00  0.140E+00  0.568E-01  0.568E-01
 19.199  0.251E+00  0.139E+00  0.561E-01  0.561E-01
 19.209  0.250E+00  0.139E+00  0.553E-01  0.553E-01
 19.219  0.248E+00  0.139E+00  0.545E-01  0.545E-01
 19.229  0.246E+00  0.139E+00  0.538E-01  0.538E-01
 19.239  0.245E+00  0.139E+00  0.531E-01  0.531E-01
 19.249  0.243E+00  0.138E+00  0.524E-01  0.524E-01
 19.259  0.242E+00  0.138E+00  0.517E-01  0.517E-01
 19.269  0.240E+00  0.138E+00  0.511E-01  0.511E-01
 19.279  0.239E+00  0.138E+00  0.504E-01  0.504E-01
 19.289  0.237E+00  0.138E+00  0.498E-01  0.498E-01
 19.299  0.236E+00  0.138E+00  0.492E-01  0.492E-01
 19.309  0.235E+00  0.137E+00  0.486E-01  0.486E-01
 19.319  0.233E+00  0.137E+00  0.481E-01  0.481E-01
 19.329  0.231E+00  0.137E+00  0.475E-01  0.475E-01
 19.339  0.230E+00  0.136E+00  0.469E-01  0.469E-01
 19.349  0.228E+00  0.135E+00  0.463E-01  0.463E-01
 19.359  0.226E+00  0.135E+00  0.457E-01  0.457E-01
 19.369  0.224E+00  0.134E+00  0.451E-01  0.451E-01
 19.379  0.221E+00  0.133E+00  0.445E-01  0.445E-01
 19.389  0.219E+00  0.131E+00  0.438E-01  0.438E-01
 19.399  0.216E+00  0.130E+00  0.431E-01  0.431E-01
 19.409  0.213E+00  0.128E+00  0.424E-01  0.424E-01
 19.419  0.209E+00  0.126E+00  0.417E-01  0.417E-01
 19.429  0.206E+00  0.124E+00  0.409E-01  0.409E-01
 19.439  0.202E+00  0.121E+00  0.402E-01  0.402E-01
 19.449  0.197E+00  0.119E+00  0.394E-01  0.394E-01
 19.459  0.193E+00  0.116E+00  0.385E-01  0.385E-01
 19.469  0.188E+00  0.113E+00  0.377E-01  0.377E-01
 19.479  0.183E+00  0.110E+00  0.369E-01  0.369E-01
 19.489  0.178E+00  0.106E+00  0.360E-01  0.360E-01
 19.499  0.173E+00  0.103E+00  0.352E-01  0.352E-01
 19.509  0.168E+00  0.994E-01  0.344E-01  0.344E-01
 19.519  0.163E+00  0.959E-01  0.336E-01  0.336E-01
 19.529  0.158E+00  0.924E-01  0.328E-01  0.328E-01
 19.539  0.153E+00  0.890E-01  0.321E-01  0.321E-01
 19.549  0.148E+00  0.856E-01  0.314E-01  0.314E-01
 19.559  0.144E+00  0.823E-01  0.308E-01  0.308E-01
 19.569  0.140E+00  0.791E-01  0.302E-01  0.302E-01
 19.579  0.135E+00  0.761E-01  0.296E-01  0.296E-01
 19.589  0.132E+00  0.733E-01  0.292E-01  0.292E-01
 19.599  0.128E+00  0.706E-01  0.287E-01  0.287E-01
 19.609  0.125E+00  0.681E-01  0.283E-01  0.283E-01
 19.619  0.122E+00  0.657E-01  0.280E-01  0.280E-01
 19.629  0.119E+00  0.635E-01  0.276E-01  0.276E-01
 19.639  0.116E+00  0.615E-01  0.274E-01  0.274E-01
 19.649  0.114E+00  0.596E-01  0.271E-01  0.271E-01
 19.659  0.112E+00  0.578E-01  0.269E-01  0.269E-01
 19.669  0.110E+00  0.562E-01  0.267E-01  0.267E-01
 19.679  0.108E+00  0.546E-01  0.265E-01  0.265E-01
 19.689  0.106E+00  0.532E-01  0.264E-01  0.264E-01
 19.699  0.104E+00  0.518E-01  0.262E-01  0.262E-01
 19.709  0.103E+00  0.506E-01  0.261E-01  0.261E-01
 19.719  0.101E+00  0.494E-01  0.259E-01  0.259E-01
 19.729  0.999E-01  0.482E-01  0.258E-01  0.258E-01
 19.739  0.985E-01  0.471E-01  0.257E-01  0.257E-01
 19.749  0.972E-01  0.461E-01  0.256E-01  0.256E-01
 19.759  0.960E-01  0.451E-01  0.254E-01  0.254E-01
 19.769  0.948E-01  0.442E-01  0.253E-01  0.253E-01
 19.779  0.937E-01  0.433E-01  0.252E-01  0.252E-01
 19.789  0.926E-01  0.424E-01  0.251E-01  0.251E-01
 19.799  0.915E-01  0.416E-01  0.249E-01  0.249E-01
 19.809  0.905E-01  0.408E-01  0.248E-01  0.248E-01
 19.819  0.895E-01  0.401E-01  0.247E-01  0.247E-01
 19.829  0.885E-01  0.393E-01  0.246E-01  0.246E-01
 19.839  0.875E-01  0.386E-01  0.244E-01  0.244E-01
 19.849  0.866E-01  0.380E-01  0.243E-01  0.243E-01
 19.859  0.856E-01  0.373E-01  0.242E-01  0.242E-01
 19.869  0.847E-01  0.367E-01  0.240E-01  0.240E-01
 19.879  0.838E-01  0.361E-01  0.239E-01  0.239E-01
 19.889  0.830E-01  0.356E-01  0.237E-01  0.237E-01
 19.899  0.821E-01  0.351E-01  0.235E-01  0.235E-01
 19.909  0.813E-01  0.346E-01  0.234E-01  0.234E-01
 19.919  0.805E-01  0.342E-01  0.232E-01  0.232E-01
 19.929  0.798E-01  0.338E-01  0.230E-01  0.230E-01
 19.939  0.792E-01  0.335E-01  0.228E-01  0.228E-01
 19.949  0.787E-01  0.333E-01  0.227E-01  0.227E-01
 19.959  0.782E-01  0.331E-01  0.226E-01  0.226E-01
 19.969  0.779E-01  0.330E-01  0.225E-01  0.225E-01
 19.979  0.778E-01  0.330E-01  0.224E-01  0.224E-01
 19.989  0.778E-01  0.331E-01  0.223E-01  0.223E-01
 19.999  0.780E-01  0.333E-01  0.223E-01  0.223E-01
 20.009  0.783E-01  0.336E-01  0.224E-01  0.224E-01
 20.019  0.789E-01  0.339E-01  0.225E-01  0.225E-01
 20.029  0.796E-01  0.344E-01  0.226E-01  0.226E-01
 20.039  0.805E-01  0.349E-01  0.228E-01  0.228E-01
 20.049  0.815E-01  0.355E-01  0.230E-01  0.230E-01
 20.059  0.828E-01  0.361E-01  0.233E-01  0.233E-01
 20.069  0.841E-01  0.368E-01  0.236E-01  0.236E-01
 20.079  0.856E-01  0.376E-01  0.240E-01  0.240E-01
 20.089  0.871E-01  0.383E-01  0.244E-01  0.244E-01
 20.099  0.887E-01  0.391E-01  0.248E-01  0.248E-01
 20.109  0.903E-01  0.399E-01  0.252E-01  0.252E-01
 20.119  0.920E-01  0.407E-01  0.257E-01  0.257E-01
 20.129  0.935E-01  0.414E-01  0.261E-01  0.261E-01
 20.139  0.950E-01  0.420E-01  0.265E-01  0.265E-01
 20.149  0.964E-01  0.426E-01  0.269E-01  0.269E-01
 20.159  0.977E-01  0.431E-01  0.273E-01  0.273E-01
 20.169  0.988E-01  0.435E-01  0.277E-01  0.277E-01
 20.179  0.998E-01  0.438E-01  0.280E-01  0.280E-01
 20.189  0.101E+00  0.439E-01  0.283E-01  0.283E-01
 20.199  0.101E+00  0.440E-01  0.286E-01  0.286E-01
 20.209  0.101E+00  0.439E-01  0.288E-01  0.288E-01
 20.219  0.102E+00  0.436E-01  0.290E-01  0.290E-01
 20.229  0.102E+00  0.433E-01  0.292E-01  0.292E-01
 20.239  0.101E+00  0.428E-01  0.294E-01  0.294E-01
 20.249  0.101E+00  0.422E-01  0.295E-01  0.295E-01
 20.259  0.101E+00  0.415E-01  0.296E-01  0.296E-01
 20.269  0.100E+00  0.407E-01  0.297E-01  0.297E-01
 20.279  0.994E-01  0.399E-01  0.298E-01  0.298E-01
 20.289  0.986E-01  0.390E-01  0.298E-01  0.298E-01
 20.299  0.978E-01  0.380E-01  0.299E-01  0.299E-01
 20.309  0.969E-01  0.370E-01  0.299E-01  0.299E-01
 20.319  0.960E-01  0.361E-01  0.300E-01  0.300E-01
 20.329  0.950E-01  0.351E-01  0.300E-01  0.300E-01
 20.339  0.941E-01  0.342E-01  0.300E-01  0.300E-01
 20.349  0.931E-01  0.332E-01  0.299E-01  0.299E-01
 20.359  0.921E-01  0.323E-01  0.299E-01  0.299E-01
 20.369  0.911E-01  0.315E-01  0.298E-01  0.298E-01
 20.379  0.901E-01  0.307E-01  0.297E-01  0.297E-01
 20.389  0.892E-01  0.299E-01  0.296E-01  0.296E-01
 20.399  0.882E-01  0.291E-01  0.295E-01  0.295E-01
 20.409  0.872E-01  0.284E-01  0.294E-01  0.294E-01
 20.419  0.863E-01  0.278E-01  0.293E-01  0.293E-01
 20.429  0.853E-01  0.272E-01  0.291E-01  0.291E-01
 20.439  0.844E-01  0.266E-01  0.289E-01  0.289E-01
 20.449  0.835E-01  0.260E-01  0.288E-01  0.288E-01
 20.459  0.826E-01  0.254E-01  0.286E-01  0.286E-01
 20.469  0.818E-01  0.249E-01  0.284E-01  0.284E-01
 20.479  0.809E-01  0.244E-01  0.283E-01  0.283E-01
 20.489  0.801E-01  0.239E-01  0.281E-01  0.281E-01
 20.499  0.793E-01  0.234E-01  0.280E-01  0.280E-01
 20.509  0.786E-01  0.230E-01  0.278E-01  0.278E-01
 20.519  0.779E-01  0.225E-01  0.277E-01  0.277E-01
 20.529  0.772E-01  0.221E-01  0.276E-01  0.276E-01
 20.539  0.766E-01  0.216E-01  0.275E-01  0.275E-01
 20.549  0.760E-01  0.212E-01  0.274E-01  0.274E-01
 20.559  0.754E-01  0.208E-01  0.273E-01  0.273E-01
 20.569  0.749E-01  0.204E-01  0.272E-01  0.272E-01
 20.579  0.745E-01  0.201E-01  0.272E-01  0.272E-01
 20.589  0.740E-01  0.197E-01  0.272E-01  0.272E-01
 20.599  0.736E-01  0.193E-01  0.271E-01  0.271E-01
 20.609  0.733E-01  0.190E-01  0.271E-01  0.271E-01
 20.619  0.730E-01  0.187E-01  0.272E-01  0.272E-01
 20.629  0.728E-01  0.184E-01  0.272E-01  0.272E-01
 20.639  0.726E-01  0.181E-01  0.273E-01  0.273E-01
 20.649  0.725E-01  0.178E-01  0.273E-01  0.273E-01
 20.659  0.725E-01  0.176E-01  0.275E-01  0.275E-01
 20.669  0.726E-01  0.174E-01  0.276E-01  0.276E-01
 20.679  0.727E-01  0.172E-01  0.278E-01  0.278E-01
 20.689  0.730E-01  0.170E-01  0.280E-01  0.280E-01
 20.699  0.733E-01  0.169E-01  0.282E-01  0.282E-01
 20.709  0.737E-01  0.168E-01  0.285E-01  0.285E-01
 20.719  0.741E-01  0.167E-01  0.287E-01  0.287E-01
 20.729  0.747E-01  0.166E-01  0.290E-01  0.290E-01
 20.739  0.752E-01  0.165E-01  0.293E-01  0.293E-01
 20.749  0.758E-01  0.165E-01  0.296E-01  0.296E-01
 20.759  0.764E-01  0.165E-01  0.299E-01  0.299E-01
 20.769  0.769E-01  0.165E-01  0.302E-01  0.302E-01
 20.779  0.774E-01  0.165E-01  0.305E-01  0.305E-01
 20.789  0.779E-01  0.165E-01  0.307E-01  0.307E-01
 20.799  0.783E-01  0.165E-01  0.309E-01  0.309E-01
 20.809  0.786E-01  0.166E-01  0.310E-01  0.310E-01
 20.819  0.788E-01  0.166E-01  0.311E-01  0.311E-01
 20.829  0.789E-01  0.166E-01  0.312E-01  0.312E-01
 20.839  0.790E-01  0.166E-01  0.312E-01  0.312E-01
 20.849  0.789E-01  0.165E-01  0.312E-01  0.312E-01
 20.859  0.787E-01  0.165E-01  0.311E-01  0.311E-01
 20.869  0.784E-01  0.164E-01  0.310E-01  0.310E-01
 20.879  0.781E-01  0.164E-01  0.308E-01  0.308E-01
 20.889  0.777E-01  0.163E-01  0.307E-01  0.307E-01
 20.899  0.772E-01  0.162E-01  0.305E-01  0.305E-01
 20.909  0.768E-01  0.161E-01  0.303E-01  0.303E-01
 20.919  0.763E-01  0.160E-01  0.302E-01  0.302E-01
 20.929  0.759E-01  0.159E-01  0.300E-01  0.300E-01
 20.939  0.755E-01  0.158E-01  0.298E-01  0.298E-01
 20.949  0.751E-01  0.157E-01  0.297E-01  0.297E-01
 20.959  0.748E-01  0.156E-01  0.296E-01  0.296E-01
 20.969  0.746E-01  0.156E-01  0.295E-01  0.295E-01
 20.979  0.744E-01  0.155E-01  0.295E-01  0.295E-01
 20.989  0.743E-01  0.154E-01  0.295E-01  0.295E-01
 20.999  0.743E-01  0.154E-01  0.295E-01  0.295E-01
 21.009  0.743E-01  0.153E-01  0.295E-01  0.295E-01
 21.019  0.744E-01  0.153E-01  0.296E-01  0.296E-01
 21.029  0.745E-01  0.153E-01  0.296E-01  0.296E-01
 21.039  0.747E-01  0.152E-01  0.297E-01  0.297E-01
 21.049  0.748E-01  0.152E-01  0.298E-01  0.298E-01
 21.059  0.750E-01  0.152E-01  0.299E-01  0.299E-01
 21.069  0.752E-01  0.151E-01  0.300E-01  0.300E-01
 21.079  0.754E-01  0.151E-01  0.301E-01  0.301E-01
 21.089  0.755E-01  0.150E-01  0.303E-01  0.303E-01
 21.099  0.757E-01  0.150E-01  0.304E-01  0.304E-01
 21.109  0.758E-01  0.149E-01  0.305E-01  0.305E-01
 21.119  0.760E-01  0.149E-01  0.305E-01  0.305E-01
 21.129  0.761E-01  0.148E-01  0.306E-01  0.306E-01
 21.139  0.762E-01  0.148E-01  0.307E-01  0.307E-01
 21.149  0.763E-01  0.148E-01  0.308E-01  0.308E-01
 21.159  0.764E-01  0.147E-01  0.308E-01  0.308E-01
 21.169  0.765E-01  0.147E-01  0.309E-01  0.309E-01
 21.179  0.766E-01  0.147E-01  0.309E-01  0.309E-01
 21.189  0.767E-01  0.147E-01  0.310E-01  0.310E-01
 21.199  0.767E-01  0.147E-01  0.310E-01  0.310E-01
 21.209  0.768E-01  0.148E-01  0.310E-01  0.310E-01
 21.219  0.769E-01  0.148E-01  0.311E-01  0.311E-01
 21.229  0.770E-01  0.149E-01  0.311E-01  0.311E-01
 21.239  0.771E-01  0.149E-01  0.311E-01  0.311E-01
 21.249  0.771E-01  0.150E-01  0.311E-01  0.311E-01
 21.259  0.771E-01  0.150E-01  0.310E-01  0.310E-01
 21.269  0.771E-01  0.151E-01  0.310E-01  0.310E-01
 21.279  0.771E-01  0.151E-01  0.310E-01  0.310E-01
 21.289  0.770E-01  0.151E-01  0.309E-01  0.309E-01
 21.299  0.769E-01  0.151E-01  0.309E-01  0.309E-01
 21.309  0.767E-01  0.151E-01  0.308E-01  0.308E-01
 21.319  0.765E-01  0.151E-01  0.307E-01  0.307E-01
 21.329  0.763E-01  0.151E-01  0.306E-01  0.306E-01
 21.339  0.761E-01  0.150E-01  0.305E-01  0.305E-01
 21.349  0.759E-01  0.149E-01  0.305E-01  0.305E-01
 21.359  0.757E-01  0.149E-01  0.304E-01  0.304E-01
 21.369  0.755E-01  0.148E-01  0.304E-01  0.304E-01
 21.379  0.753E-01  0.147E-01  0.303E-01  0.303E-01
 21.389  0.752E-01  0.146E-01  0.303E-01  0.303E-01
 21.399  0.751E-01  0.145E-01  0.303E-01  0.303E-01
 21.409  0.751E-01  0.144E-01  0.304E-01  0.304E-01
 21.419  0.751E-01  0.143E-01  0.304E-01  0.304E-01
 21.429  0.752E-01  0.142E-01  0.305E-01  0.305E-01
 21.439  0.753E-01  0.141E-01  0.306E-01  0.306E-01
 21.449  0.755E-01  0.141E-01  0.307E-01  0.307E-01
 21.459  0.758E-01  0.140E-01  0.309E-01  0.309E-01
 21.469  0.760E-01  0.140E-01  0.310E-01  0.310E-01
 21.479  0.763E-01  0.140E-01  0.311E-01  0.311E-01
 21.489  0.765E-01  0.140E-01  0.313E-01  0.313E-01
 21.499  0.768E-01  0.140E-01  0.314E-01  0.314E-01
 21.509  0.769E-01  0.141E-01  0.314E-01  0.314E-01
 21.519  0.770E-01  0.141E-01  0.315E-01  0.315E-01
 21.529  0.771E-01  0.142E-01  0.315E-01  0.315E-01
 21.539  0.770E-01  0.142E-01  0.314E-01  0.314E-01
 21.549  0.769E-01  0.143E-01  0.313E-01  0.313E-01
 21.559  0.766E-01  0.143E-01  0.312E-01  0.312E-01
 21.569  0.763E-01  0.143E-01  0.310E-01  0.310E-01
 21.579  0.759E-01  0.144E-01  0.307E-01  0.307E-01
 21.589  0.753E-01  0.144E-01  0.305E-01  0.305E-01
 21.599  0.747E-01  0.144E-01  0.302E-01  0.302E-01
 21.609  0.740E-01  0.144E-01  0.298E-01  0.298E-01
 21.619  0.733E-01  0.143E-01  0.295E-01  0.295E-01
 21.629  0.725E-01  0.143E-01  0.291E-01  0.291E-01
 21.639  0.718E-01  0.142E-01  0.288E-01  0.288E-01
 21.649  0.710E-01  0.142E-01  0.284E-01  0.284E-01
 21.659  0.702E-01  0.141E-01  0.281E-01  0.281E-01
 21.669  0.695E-01  0.140E-01  0.278E-01  0.278E-01
 21.679  0.688E-01  0.139E-01  0.274E-01  0.274E-01
 21.689  0.681E-01  0.138E-01  0.272E-01  0.272E-01
 21.699  0.675E-01  0.137E-01  0.269E-01  0.269E-01
 21.709  0.669E-01  0.136E-01  0.267E-01  0.267E-01
 21.719  0.664E-01  0.134E-01  0.265E-01  0.265E-01
 21.729  0.660E-01  0.133E-01  0.263E-01  0.263E-01
 21.739  0.656E-01  0.132E-01  0.262E-01  0.262E-01
 21.749  0.652E-01  0.131E-01  0.260E-01  0.260E-01
 21.759  0.650E-01  0.131E-01  0.259E-01  0.259E-01
 21.769  0.647E-01  0.130E-01  0.259E-01  0.259E-01
 21.779  0.646E-01  0.129E-01  0.258E-01  0.258E-01
 21.789  0.645E-01  0.129E-01  0.258E-01  0.258E-01
 21.799  0.645E-01  0.129E-01  0.258E-01  0.258E-01
 21.809  0.645E-01  0.129E-01  0.258E-01  0.258E-01
 21.819  0.647E-01  0.129E-01  0.259E-01  0.259E-01
 21.829  0.648E-01  0.129E-01  0.260E-01  0.260E-01
 21.839  0.651E-01  0.129E-01  0.261E-01  0.261E-01
 21.849  0.653E-01  0.130E-01  0.262E-01  0.262E-01
 21.859  0.657E-01  0.131E-01  0.263E-01  0.263E-01
 21.869  0.660E-01  0.132E-01  0.264E-01  0.264E-01
 21.879  0.664E-01  0.133E-01  0.265E-01  0.265E-01
 21.889  0.668E-01  0.134E-01  0.267E-01  0.267E-01
 21.899  0.672E-01  0.136E-01  0.268E-01  0.268E-01
 21.909  0.675E-01  0.137E-01  0.269E-01  0.269E-01
 21.919  0.678E-01  0.139E-01  0.270E-01  0.270E-01
 21.929  0.681E-01  0.140E-01  0.271E-01  0.271E-01
 21.939  0.683E-01  0.141E-01  0.271E-01  0.271E-01
 21.949  0.685E-01  0.142E-01  0.271E-01  0.271E-01
 21.959  0.686E-01  0.143E-01  0.271E-01  0.271E-01
 21.969  0.687E-01  0.144E-01  0.271E-01  0.271E-01
 21.979  0.687E-01  0.145E-01  0.271E-01  0.271E-01
 21.989  0.687E-01  0.146E-01  0.271E-01  0.271E-01
 21.999  0.686E-01  0.146E-01  0.270E-01  0.270E-01
 22.009  0.685E-01  0.147E-01  0.269E-01  0.269E-01
 22.019  0.685E-01  0.147E-01  0.269E-01  0.269E-01
 22.029  0.684E-01  0.148E-01  0.268E-01  0.268E-01
 22.039  0.684E-01  0.148E-01  0.268E-01  0.268E-01
 22.049  0.684E-01  0.149E-01  0.268E-01  0.268E-01
 22.059  0.685E-01  0.150E-01  0.268E-01  0.268E-01
 22.069  0.687E-01  0.151E-01  0.268E-01  0.268E-01
 22.079  0.689E-01  0.152E-01  0.269E-01  0.269E-01
 22.089  0.693E-01  0.153E-01  0.270E-01  0.270E-01
 22.099  0.697E-01  0.155E-01  0.271E-01  0.271E-01
 22.109  0.703E-01  0.157E-01  0.273E-01  0.273E-01
 22.119  0.709E-01  0.159E-01  0.275E-01  0.275E-01
 22.129  0.717E-01  0.161E-01  0.278E-01  0.278E-01
 22.139  0.726E-01  0.163E-01  0.281E-01  0.281E-01
 22.149  0.736E-01  0.166E-01  0.285E-01  0.285E-01
 22.159  0.747E-01  0.169E-01  0.289E-01  0.289E-01
 22.169  0.758E-01  0.172E-01  0.293E-01  0.293E-01
 22.179  0.771E-01  0.175E-01  0.298E-01  0.298E-01
 22.189  0.783E-01  0.177E-01  0.303E-01  0.303E-01
 22.199  0.796E-01  0.180E-01  0.308E-01  0.308E-01
 22.209  0.809E-01  0.183E-01  0.313E-01  0.313E-01
 22.219  0.822E-01  0.185E-01  0.318E-01  0.318E-01
 22.229  0.834E-01  0.188E-01  0.323E-01  0.323E-01
 22.239  0.845E-01  0.190E-01  0.328E-01  0.328E-01
 22.249  0.855E-01  0.191E-01  0.332E-01  0.332E-01
 22.259  0.863E-01  0.193E-01  0.335E-01  0.335E-01
 22.269  0.870E-01  0.194E-01  0.338E-01  0.338E-01
 22.279  0.875E-01  0.195E-01  0.340E-01  0.340E-01
 22.289  0.879E-01  0.195E-01  0.342E-01  0.342E-01
 22.299  0.881E-01  0.195E-01  0.343E-01  0.343E-01
 22.309  0.880E-01  0.195E-01  0.343E-01  0.343E-01
 22.319  0.878E-01  0.195E-01  0.342E-01  0.342E-01
 22.329  0.875E-01  0.194E-01  0.340E-01  0.340E-01
 22.339  0.869E-01  0.193E-01  0.338E-01  0.338E-01
 22.349  0.862E-01  0.191E-01  0.336E-01  0.336E-01
 22.359  0.854E-01  0.189E-01  0.332E-01  0.332E-01
 22.369  0.844E-01  0.187E-01  0.329E-01  0.329E-01
 22.379  0.834E-01  0.185E-01  0.324E-01  0.324E-01
 22.389  0.822E-01  0.183E-01  0.320E-01  0.320E-01
 22.399  0.809E-01  0.180E-01  0.315E-01  0.315E-01
 22.409  0.796E-01  0.177E-01  0.310E-01  0.310E-01
 22.419  0.782E-01  0.173E-01  0.304E-01  0.304E-01
 22.429  0.767E-01  0.170E-01  0.299E-01  0.299E-01
 22.439  0.751E-01  0.166E-01  0.293E-01  0.293E-01
 22.449  0.735E-01  0.161E-01  0.287E-01  0.287E-01
 22.459  0.718E-01  0.157E-01  0.280E-01  0.280E-01
 22.469  0.700E-01  0.152E-01  0.274E-01  0.274E-01
 22.479  0.681E-01  0.148E-01  0.267E-01  0.267E-01
 22.489  0.663E-01  0.143E-01  0.260E-01  0.260E-01
 22.499  0.643E-01  0.138E-01  0.253E-01  0.253E-01
 22.509  0.624E-01  0.133E-01  0.245E-01  0.245E-01
 22.519  0.604E-01  0.128E-01  0.238E-01  0.238E-01
 22.529  0.583E-01  0.124E-01  0.230E-01  0.230E-01
 22.539  0.563E-01  0.119E-01  0.222E-01  0.222E-01
 22.549  0.543E-01  0.115E-01  0.214E-01  0.214E-01
 22.559  0.523E-01  0.112E-01  0.206E-01  0.206E-01
 22.569  0.504E-01  0.108E-01  0.198E-01  0.198E-01
 22.579  0.484E-01  0.105E-01  0.190E-01  0.190E-01
 22.589  0.465E-01  0.102E-01  0.182E-01  0.182E-01
 22.599  0.447E-01  0.999E-02  0.174E-01  0.174E-01
 22.609  0.429E-01  0.978E-02  0.166E-01  0.166E-01
 22.619  0.412E-01  0.960E-02  0.158E-01  0.158E-01
 22.629  0.395E-01  0.945E-02  0.150E-01  0.150E-01
 22.639  0.379E-01  0.931E-02  0.143E-01  0.143E-01
 22.649  0.364E-01  0.918E-02  0.136E-01  0.136E-01
 22.659  0.348E-01  0.906E-02  0.129E-01  0.129E-01
 22.669  0.333E-01  0.893E-02  0.122E-01  0.122E-01
 22.679  0.319E-01  0.879E-02  0.115E-01  0.115E-01
 22.689  0.305E-01  0.864E-02  0.109E-01  0.109E-01
 22.699  0.291E-01  0.846E-02  0.103E-01  0.103E-01
 22.709  0.277E-01  0.826E-02  0.971E-02  0.971E-02
 22.719  0.263E-01  0.803E-02  0.914E-02  0.914E-02
 22.729  0.250E-01  0.778E-02  0.860E-02  0.860E-02
 22.739  0.237E-01  0.749E-02  0.809E-02  0.809E-02
 22.749  0.224E-01  0.718E-02  0.760E-02  0.760E-02
 22.759  0.211E-01  0.684E-02  0.714E-02  0.714E-02
 22.769  0.199E-01  0.648E-02  0.670E-02  0.670E-02
 22.779  0.187E-01  0.610E-02  0.629E-02  0.629E-02
 22.789  0.175E-01  0.570E-02  0.591E-02  0.591E-02
 22.799  0.164E-01  0.530E-02  0.554E-02  0.554E-02
 22.809  0.153E-01  0.489E-02  0.520E-02  0.520E-02
 22.819  0.142E-01  0.449E-02  0.488E-02  0.488E-02
 22.829  0.132E-01  0.409E-02  0.458E-02  0.458E-02
 22.839  0.123E-01  0.370E-02  0.429E-02  0.429E-02
 22.849  0.114E-01  0.333E-02  0.402E-02  0.402E-02
 22.859  0.105E-01  0.297E-02  0.377E-02  0.377E-02
 22.869  0.968E-02  0.264E-02  0.352E-02  0.352E-02
 22.879  0.890E-02  0.232E-02  0.329E-02  0.329E-02
 22.889  0.817E-02  0.203E-02  0.307E-02  0.307E-02
 22.899  0.747E-02  0.177E-02  0.285E-02  0.285E-02
 22.909  0.682E-02  0.153E-02  0.264E-02  0.264E-02
 22.919  0.620E-02  0.131E-02  0.244E-02  0.244E-02
 22.929  0.562E-02  0.112E-02  0.225E-02  0.225E-02
 22.939  0.508E-02  0.949E-03  0.206E-02  0.206E-02
 22.949  0.457E-02  0.800E-03  0.188E-02  0.188E-02
 22.959  0.409E-02  0.670E-03  0.171E-02  0.171E-02
 22.969  0.365E-02  0.558E-03  0.155E-02  0.155E-02
 22.979  0.324E-02  0.462E-03  0.139E-02  0.139E-02
 22.989  0.286E-02  0.381E-03  0.124E-02  0.124E-02
 22.999  0.251E-02  0.312E-03  0.110E-02  0.110E-02
 23.009  0.219E-02  0.254E-03  0.969E-03  0.969E-03
 23.019  0.190E-02  0.206E-03  0.848E-03  0.848E-03
 23.029  0.164E-02  0.166E-03  0.737E-03  0.737E-03
 23.039  0.140E-02  0.134E-03  0.635E-03  0.635E-03
 23.049  0.119E-02  0.107E-03  0.543E-03  0.543E-03
 23.059  0.101E-02  0.849E-04  0.461E-03  0.461E-03
 23.069  0.843E-03  0.672E-04  0.388E-03  0.388E-03
 23.079  0.701E-03  0.528E-04  0.324E-03  0.324E-03
 23.089  0.577E-03  0.414E-04  0.268E-03  0.268E-03
 23.099  0.472E-03  0.322E-04  0.220E-03  0.220E-03
 23.109  0.383E-03  0.249E-04  0.179E-03  0.179E-03
 23.119  0.308E-03  0.192E-04  0.144E-03  0.144E-03
 23.129  0.246E-03  0.147E-04  0.115E-03  0.115E-03
 23.139  0.194E-03  0.112E-04  0.914E-04  0.914E-04
 23.149  0.152E-03  0.843E-05  0.718E-04  0.718E-04
 23.159  0.118E-03  0.633E-05  0.559E-04  0.559E-04
 23.169  0.909E-04  0.471E-05  0.431E-04  0.431E-04
 23.179  0.694E-04  0.349E-05  0.330E-04  0.330E-04
 23.189  0.525E-04  0.256E-05  0.250E-04  0.250E-04
 23.199  0.393E-04  0.187E-05  0.187E-04  0.187E-04
 23.209  0.292E-04  0.135E-05  0.139E-04  0.139E-04
 23.219  0.215E-04  0.968E-06  0.103E-04  0.103E-04
 23.229  0.157E-04  0.689E-06  0.752E-05  0.752E-05
 23.239  0.114E-04  0.486E-06  0.545E-05  0.545E-05
 23.249  0.817E-05  0.341E-06  0.392E-05  0.392E-05
 23.259  0.582E-05  0.237E-06  0.279E-05  0.279E-05
 23.269  0.411E-05  0.164E-06  0.197E-05  0.197E-05
 23.279  0.288E-05  0.112E-06  0.138E-05  0.138E-05
 23.289  0.200E-05  0.763E-07  0.962E-06  0.962E-06
 23.299  0.138E-05  0.516E-07  0.664E-06  0.664E-06
 23.309  0.946E-06  0.347E-07  0.456E-06  0.456E-06
 23.319  0.644E-06  0.232E-07  0.310E-06  0.310E-06
 23.329  0.436E-06  0.155E-07  0.210E-06  0.210E-06
 23.339  0.293E-06  0.103E-07  0.141E-06  0.141E-06
 23.349  0.196E-06  0.682E-08  0.947E-07  0.947E-07
 23.359  0.131E-06  0.452E-08  0.632E-07  0.632E-07
 23.369  0.869E-07  0.299E-08  0.419E-07  0.419E-07
 23.379  0.575E-07  0.199E-08  0.277E-07  0.277E-07
 23.389  0.379E-07  0.132E-08  0.183E-07  0.183E-07
 23.399  0.250E-07  0.877E-09  0.120E-07  0.120E-07
 23.409  0.164E-07  0.585E-09  0.792E-08  0.792E-08
 23.419  0.108E-07  0.391E-09  0.519E-08  0.519E-08
 23.429  0.706E-08  0.262E-09  0.340E-08  0.340E-08
 23.439  0.462E-08  0.176E-09  0.222E-08  0.222E-08
 23.449  0.302E-08  0.118E-09  0.145E-08  0.145E-08
 23.459  0.197E-08  0.788E-10  0.946E-09  0.946E-09
 23.469  0.128E-08  0.526E-10  0.615E-09  0.615E-09
 23.479  0.833E-09  0.350E-10  0.399E-09  0.399E-09
 23.489  0.539E-09  0.232E-10  0.258E-09  0.258E-09
 23.499  0.348E-09  0.153E-10  0.166E-09  0.166E-09
 23.509  0.223E-09  0.101E-10  0.107E-09  0.107E-09
 23.519  0.142E-09  0.655E-11  0.680E-10  0.680E-10
 23.529  0.905E-10  0.423E-11  0.431E-10  0.431E-10
 23.539  0.571E-10  0.271E-11  0.272E-10  0.272E-10
 23.549  0.358E-10  0.172E-11  0.170E-10  0.170E-10
