# E (eV)   ldos(E)   pdos(E)   
 -6.851  0.278E-06  0.278E-06
 -6.841  0.444E-06  0.444E-06
 -6.831  0.702E-06  0.702E-06
 -6.821  0.110E-05  0.110E-05
 -6.811  0.170E-05  0.170E-05
 -6.801  0.261E-05  0.261E-05
 -6.791  0.396E-05  0.396E-05
 -6.781  0.595E-05  0.595E-05
 -6.771  0.885E-05  0.885E-05
 -6.761  0.130E-04  0.130E-04
 -6.751  0.190E-04  0.190E-04
 -6.741  0.275E-04  0.275E-04
 -6.731  0.393E-04  0.393E-04
 -6.721  0.556E-04  0.556E-04
 -6.711  0.780E-04  0.780E-04
 -6.701  0.108E-03  0.108E-03
 -6.691  0.149E-03  0.149E-03
 -6.681  0.203E-03  0.203E-03
 -6.671  0.274E-03  0.274E-03
 -6.661  0.366E-03  0.366E-03
 -6.651  0.485E-03  0.485E-03
 -6.641  0.636E-03  0.636E-03
 -6.631  0.826E-03  0.826E-03
 -6.621  0.106E-02  0.106E-02
 -6.611  0.136E-02  0.136E-02
 -6.601  0.172E-02  0.172E-02
 -6.591  0.215E-02  0.215E-02
 -6.581  0.267E-02  0.267E-02
 -6.571  0.329E-02  0.329E-02
 -6.561  0.401E-02  0.401E-02
 -6.551  0.486E-02  0.486E-02
 -6.541  0.583E-02  0.583E-02
 -6.531  0.694E-02  0.694E-02
 -6.521  0.819E-02  0.819E-02
 -6.511  0.959E-02  0.959E-02
 -6.501  0.111E-01  0.111E-01
 -6.491  0.128E-01  0.128E-01
 -6.481  0.147E-01  0.147E-01
 -6.471  0.167E-01  0.167E-01
 -6.461  0.188E-01  0.188E-01
 -6.451  0.211E-01  0.211E-01
 -6.441  0.234E-01  0.234E-01
 -6.431  0.259E-01  0.259E-01
 -6.421  0.285E-01  0.285E-01
 -6.411  0.311E-01  0.311E-01
 -6.401  0.337E-01  0.337E-01
 -6.391  0.364E-01  0.364E-01
 -6.381  0.391E-01  0.391E-01
 -6.371  0.417E-01  0.417E-01
 -6.361  0.443E-01  0.443E-01
 -6.351  0.469E-01  0.469E-01
 -6.341  0.494E-01  0.494E-01
 -6.331  0.519E-01  0.519E-01
 -6.321  0.543E-01  0.543E-01
 -6.311  0.565E-01  0.565E-01
 -6.301  0.587E-01  0.587E-01
 -6.291  0.608E-01  0.608E-01
 -6.281  0.629E-01  0.629E-01
 -6.271  0.648E-01  0.648E-01
 -6.261  0.666E-01  0.666E-01
 -6.251  0.684E-01  0.684E-01
 -6.241  0.701E-01  0.701E-01
 -6.231  0.717E-01  0.717E-01
 -6.221  0.732E-01  0.732E-01
 -6.211  0.747E-01  0.747E-01
 -6.201  0.761E-01  0.761E-01
 -6.191  0.775E-01  0.775E-01
 -6.181  0.788E-01  0.788E-01
 -6.171  0.801E-01  0.801E-01
 -6.161  0.814E-01  0.814E-01
 -6.151  0.827E-01  0.827E-01
 -6.141  0.839E-01  0.839E-01
 -6.131  0.851E-01  0.851E-01
 -6.121  0.863E-01  0.863E-01
 -6.111  0.875E-01  0.875E-01
 -6.101  0.887E-01  0.887E-01
 -6.091  0.899E-01  0.899E-01
 -6.081  0.911E-01  0.911E-01
 -6.071  0.923E-01  0.923E-01
 -6.061  0.935E-01  0.935E-01
 -6.051  0.948E-01  0.948E-01
 -6.041  0.960E-01  0.960E-01
 -6.031  0.973E-01  0.973E-01
 -6.021  0.985E-01  0.985E-01
 -6.011  0.998E-01  0.998E-01
 -6.001  0.101E+00  0.101E+00
 -5.991  0.103E+00  0.103E+00
 -5.981  0.104E+00  0.104E+00
 -5.971  0.105E+00  0.105E+00
 -5.961  0.107E+00  0.107E+00
 -5.951  0.108E+00  0.108E+00
 -5.941  0.110E+00  0.110E+00
 -5.931  0.112E+00  0.112E+00
 -5.921  0.114E+00  0.114E+00
 -5.911  0.115E+00  0.115E+00
 -5.901  0.117E+00  0.117E+00
 -5.891  0.119E+00  0.119E+00
 -5.881  0.121E+00  0.121E+00
 -5.871  0.124E+00  0.124E+00
 -5.861  0.126E+00  0.126E+00
 -5.851  0.129E+00  0.129E+00
 -5.841  0.131E+00  0.131E+00
 -5.831  0.134E+00  0.134E+00
 -5.821  0.137E+00  0.137E+00
 -5.811  0.140E+00  0.140E+00
 -5.801  0.144E+00  0.144E+00
 -5.791  0.147E+00  0.147E+00
 -5.781  0.151E+00  0.151E+00
 -5.771  0.155E+00  0.155E+00
 -5.761  0.159E+00  0.159E+00
 -5.751  0.163E+00  0.163E+00
 -5.741  0.167E+00  0.167E+00
 -5.731  0.171E+00  0.171E+00
 -5.721  0.176E+00  0.176E+00
 -5.711  0.180E+00  0.180E+00
 -5.701  0.184E+00  0.184E+00
 -5.691  0.188E+00  0.188E+00
 -5.681  0.191E+00  0.191E+00
 -5.671  0.194E+00  0.194E+00
 -5.661  0.197E+00  0.197E+00
 -5.651  0.199E+00  0.199E+00
 -5.641  0.200E+00  0.200E+00
 -5.631  0.201E+00  0.201E+00
 -5.621  0.201E+00  0.201E+00
 -5.611  0.200E+00  0.200E+00
 -5.601  0.198E+00  0.198E+00
 -5.591  0.196E+00  0.196E+00
 -5.581  0.192E+00  0.192E+00
 -5.571  0.188E+00  0.188E+00
 -5.561  0.182E+00  0.182E+00
 -5.551  0.176E+00  0.176E+00
 -5.541  0.169E+00  0.169E+00
 -5.531  0.161E+00  0.161E+00
 -5.521  0.153E+00  0.153E+00
 -5.511  0.144E+00  0.144E+00
 -5.501  0.135E+00  0.135E+00
 -5.491  0.125E+00  0.125E+00
 -5.481  0.116E+00  0.116E+00
 -5.471  0.106E+00  0.106E+00
 -5.461  0.966E-01  0.966E-01
 -5.451  0.872E-01  0.872E-01
 -5.441  0.782E-01  0.782E-01
 -5.431  0.696E-01  0.696E-01
 -5.421  0.614E-01  0.614E-01
 -5.411  0.538E-01  0.538E-01
 -5.401  0.467E-01  0.467E-01
 -5.391  0.402E-01  0.402E-01
 -5.381  0.344E-01  0.344E-01
 -5.371  0.291E-01  0.291E-01
 -5.361  0.245E-01  0.245E-01
 -5.351  0.204E-01  0.204E-01
 -5.341  0.168E-01  0.168E-01
 -5.331  0.138E-01  0.138E-01
 -5.321  0.112E-01  0.112E-01
 -5.311  0.897E-02  0.897E-02
 -5.301  0.714E-02  0.714E-02
 -5.291  0.563E-02  0.563E-02
 -5.281  0.440E-02  0.440E-02
 -5.271  0.341E-02  0.341E-02
 -5.261  0.262E-02  0.262E-02
 -5.251  0.199E-02  0.199E-02
 -5.241  0.150E-02  0.150E-02
 -5.231  0.112E-02  0.112E-02
 -5.221  0.824E-03  0.824E-03
 -5.211  0.602E-03  0.602E-03
 -5.201  0.436E-03  0.436E-03
 -5.191  0.313E-03  0.313E-03
 -5.181  0.222E-03  0.222E-03
 -5.171  0.156E-03  0.156E-03
 -5.161  0.109E-03  0.109E-03
 -5.151  0.748E-04  0.748E-04
 -5.141  0.511E-04  0.511E-04
 -5.131  0.345E-04  0.345E-04
 -5.121  0.231E-04  0.231E-04
 -5.111  0.153E-04  0.153E-04
 -5.101  0.100E-04  0.100E-04
 -5.091  0.649E-05  0.649E-05
 -5.081  0.416E-05  0.416E-05
 -5.071  0.265E-05  0.265E-05
 -5.061  0.166E-05  0.166E-05
 -5.051  0.104E-05  0.104E-05
 -5.041  0.639E-06  0.639E-06
 -5.031  0.389E-06  0.389E-06
 -5.021  0.235E-06  0.235E-06
 -5.011  0.140E-06  0.140E-06
 -5.001  0.830E-07  0.830E-07
 -4.991  0.486E-07  0.486E-07
 -4.981  0.281E-07  0.281E-07
 -4.971  0.161E-07  0.161E-07
 -4.961  0.915E-08  0.915E-08
 -4.951  0.513E-08  0.513E-08
 -4.941  0.285E-08  0.285E-08
 -4.931  0.157E-08  0.157E-08
 -4.921  0.852E-09  0.852E-09
 -4.911  0.459E-09  0.459E-09
 -4.901  0.244E-09  0.244E-09
 -4.891  0.129E-09  0.129E-09
 -4.881  0.671E-10  0.671E-10
 -4.871  0.346E-10  0.346E-10
 -4.861  0.176E-10  0.176E-10
 -4.851  0.889E-11  0.889E-11
 -4.841  0.441E-11  0.441E-11
 -4.831  0.216E-11  0.216E-11
 -4.821  0.103E-11  0.103E-11
 -4.811  0.479E-12  0.479E-12
 -4.801  0.205E-12  0.205E-12
 -4.791  0.781E-13  0.781E-13
 -4.781  0.199E-13  0.199E-13
 -4.771  0.253E-13  0.253E-13
 -4.761  0.643E-13  0.643E-13
 -4.751  0.143E-12  0.143E-12
 -4.741  0.301E-12  0.301E-12
 -4.731  0.614E-12  0.614E-12
 -4.721  0.123E-11  0.123E-11
 -4.711  0.244E-11  0.244E-11
 -4.701  0.477E-11  0.477E-11
 -4.691  0.921E-11  0.921E-11
 -4.681  0.176E-10  0.176E-10
 -4.671  0.334E-10  0.334E-10
 -4.661  0.625E-10  0.625E-10
 -4.651  0.116E-09  0.116E-09
 -4.641  0.213E-09  0.213E-09
 -4.631  0.387E-09  0.387E-09
 -4.621  0.696E-09  0.696E-09
 -4.611  0.124E-08  0.124E-08
 -4.601  0.218E-08  0.218E-08
 -4.591  0.381E-08  0.381E-08
 -4.581  0.658E-08  0.658E-08
 -4.571  0.113E-07  0.113E-07
 -4.561  0.191E-07  0.191E-07
 -4.551  0.319E-07  0.319E-07
 -4.541  0.530E-07  0.530E-07
 -4.531  0.870E-07  0.870E-07
 -4.521  0.142E-06  0.142E-06
 -4.511  0.228E-06  0.228E-06
 -4.501  0.363E-06  0.363E-06
 -4.491  0.573E-06  0.573E-06
 -4.481  0.895E-06  0.895E-06
 -4.471  0.138E-05  0.138E-05
 -4.461  0.212E-05  0.212E-05
 -4.451  0.321E-05  0.321E-05
 -4.441  0.482E-05  0.482E-05
 -4.431  0.716E-05  0.716E-05
 -4.421  0.105E-04  0.105E-04
 -4.411  0.153E-04  0.153E-04
 -4.401  0.221E-04  0.221E-04
 -4.391  0.316E-04  0.316E-04
 -4.381  0.446E-04  0.446E-04
 -4.371  0.625E-04  0.625E-04
 -4.361  0.866E-04  0.866E-04
 -4.351  0.119E-03  0.119E-03
 -4.341  0.162E-03  0.162E-03
 -4.331  0.218E-03  0.218E-03
 -4.321  0.290E-03  0.290E-03
 -4.311  0.383E-03  0.383E-03
 -4.301  0.501E-03  0.501E-03
 -4.291  0.649E-03  0.649E-03
 -4.281  0.832E-03  0.832E-03
 -4.271  0.106E-02  0.106E-02
 -4.261  0.133E-02  0.133E-02
 -4.251  0.166E-02  0.166E-02
 -4.241  0.205E-02  0.205E-02
 -4.231  0.251E-02  0.251E-02
 -4.221  0.305E-02  0.305E-02
 -4.211  0.367E-02  0.367E-02
 -4.201  0.437E-02  0.437E-02
 -4.191  0.516E-02  0.516E-02
 -4.181  0.605E-02  0.605E-02
 -4.171  0.702E-02  0.702E-02
 -4.161  0.808E-02  0.808E-02
 -4.151  0.922E-02  0.922E-02
 -4.141  0.104E-01  0.104E-01
 -4.131  0.117E-01  0.117E-01
 -4.121  0.131E-01  0.131E-01
 -4.111  0.144E-01  0.144E-01
 -4.101  0.158E-01  0.158E-01
 -4.091  0.172E-01  0.172E-01
 -4.081  0.186E-01  0.186E-01
 -4.071  0.200E-01  0.200E-01
 -4.061  0.213E-01  0.213E-01
 -4.051  0.226E-01  0.226E-01
 -4.041  0.237E-01  0.237E-01
 -4.031  0.248E-01  0.248E-01
 -4.021  0.258E-01  0.258E-01
 -4.011  0.266E-01  0.266E-01
 -4.001  0.273E-01  0.273E-01
 -3.991  0.279E-01  0.279E-01
 -3.981  0.283E-01  0.283E-01
 -3.971  0.286E-01  0.286E-01
 -3.961  0.288E-01  0.288E-01
 -3.951  0.288E-01  0.288E-01
 -3.941  0.287E-01  0.287E-01
 -3.931  0.285E-01  0.285E-01
 -3.921  0.282E-01  0.282E-01
 -3.911  0.278E-01  0.278E-01
 -3.901  0.273E-01  0.273E-01
 -3.891  0.267E-01  0.267E-01
 -3.881  0.261E-01  0.261E-01
 -3.871  0.255E-01  0.255E-01
 -3.861  0.249E-01  0.249E-01
 -3.851  0.243E-01  0.243E-01
 -3.841  0.236E-01  0.236E-01
 -3.831  0.230E-01  0.230E-01
 -3.821  0.225E-01  0.225E-01
 -3.811  0.220E-01  0.220E-01
 -3.801  0.216E-01  0.216E-01
 -3.791  0.212E-01  0.212E-01
 -3.781  0.209E-01  0.209E-01
 -3.771  0.206E-01  0.206E-01
 -3.761  0.205E-01  0.205E-01
 -3.751  0.204E-01  0.204E-01
 -3.741  0.204E-01  0.204E-01
 -3.731  0.204E-01  0.204E-01
 -3.721  0.205E-01  0.205E-01
 -3.711  0.206E-01  0.206E-01
 -3.701  0.208E-01  0.208E-01
 -3.691  0.210E-01  0.210E-01
 -3.681  0.213E-01  0.213E-01
 -3.671  0.216E-01  0.216E-01
 -3.661  0.219E-01  0.219E-01
 -3.651  0.222E-01  0.222E-01
 -3.641  0.226E-01  0.226E-01
 -3.631  0.229E-01  0.229E-01
 -3.621  0.232E-01  0.232E-01
 -3.611  0.236E-01  0.236E-01
 -3.601  0.239E-01  0.239E-01
 -3.591  0.243E-01  0.243E-01
 -3.581  0.246E-01  0.246E-01
 -3.571  0.249E-01  0.249E-01
 -3.561  0.253E-01  0.253E-01
 -3.551  0.256E-01  0.256E-01
 -3.541  0.259E-01  0.259E-01
 -3.531  0.262E-01  0.262E-01
 -3.521  0.265E-01  0.265E-01
 -3.511  0.269E-01  0.269E-01
 -3.501  0.272E-01  0.272E-01
 -3.491  0.275E-01  0.275E-01
 -3.481  0.278E-01  0.278E-01
 -3.471  0.282E-01  0.282E-01
 -3.461  0.285E-01  0.285E-01
 -3.451  0.288E-01  0.288E-01
 -3.441  0.291E-01  0.291E-01
 -3.431  0.294E-01  0.294E-01
 -3.421  0.297E-01  0.297E-01
 -3.411  0.299E-01  0.299E-01
 -3.401  0.302E-01  0.302E-01
 -3.391  0.304E-01  0.304E-01
 -3.381  0.307E-01  0.307E-01
 -3.371  0.309E-01  0.309E-01
 -3.361  0.311E-01  0.311E-01
 -3.351  0.313E-01  0.313E-01
 -3.341  0.315E-01  0.315E-01
 -3.331  0.317E-01  0.317E-01
 -3.321  0.319E-01  0.319E-01
 -3.311  0.321E-01  0.321E-01
 -3.301  0.324E-01  0.324E-01
 -3.291  0.326E-01  0.326E-01
 -3.281  0.328E-01  0.328E-01
 -3.271  0.331E-01  0.331E-01
 -3.261  0.334E-01  0.334E-01
 -3.251  0.337E-01  0.337E-01
 -3.241  0.340E-01  0.340E-01
 -3.231  0.343E-01  0.343E-01
 -3.221  0.346E-01  0.346E-01
 -3.211  0.348E-01  0.348E-01
 -3.201  0.351E-01  0.351E-01
 -3.191  0.354E-01  0.354E-01
 -3.181  0.356E-01  0.356E-01
 -3.171  0.359E-01  0.359E-01
 -3.161  0.361E-01  0.361E-01
 -3.151  0.363E-01  0.363E-01
 -3.141  0.365E-01  0.365E-01
 -3.131  0.366E-01  0.366E-01
 -3.121  0.368E-01  0.368E-01
 -3.111  0.370E-01  0.370E-01
 -3.101  0.371E-01  0.371E-01
 -3.091  0.373E-01  0.373E-01
 -3.081  0.374E-01  0.374E-01
 -3.071  0.376E-01  0.376E-01
 -3.061  0.378E-01  0.378E-01
 -3.051  0.380E-01  0.380E-01
 -3.041  0.382E-01  0.382E-01
 -3.031  0.385E-01  0.385E-01
 -3.021  0.387E-01  0.387E-01
 -3.011  0.390E-01  0.390E-01
 -3.001  0.393E-01  0.393E-01
 -2.991  0.396E-01  0.396E-01
 -2.981  0.400E-01  0.400E-01
 -2.971  0.403E-01  0.403E-01
 -2.961  0.406E-01  0.406E-01
 -2.951  0.410E-01  0.410E-01
 -2.941  0.413E-01  0.413E-01
 -2.931  0.416E-01  0.416E-01
 -2.921  0.419E-01  0.419E-01
 -2.911  0.422E-01  0.422E-01
 -2.901  0.425E-01  0.425E-01
 -2.891  0.428E-01  0.428E-01
 -2.881  0.431E-01  0.431E-01
 -2.871  0.434E-01  0.434E-01
 -2.861  0.436E-01  0.436E-01
 -2.851  0.439E-01  0.439E-01
 -2.841  0.442E-01  0.442E-01
 -2.831  0.445E-01  0.445E-01
 -2.821  0.449E-01  0.449E-01
 -2.811  0.452E-01  0.452E-01
 -2.801  0.456E-01  0.456E-01
 -2.791  0.460E-01  0.460E-01
 -2.781  0.465E-01  0.465E-01
 -2.771  0.469E-01  0.469E-01
 -2.761  0.474E-01  0.474E-01
 -2.751  0.480E-01  0.480E-01
 -2.741  0.485E-01  0.485E-01
 -2.731  0.491E-01  0.491E-01
 -2.721  0.496E-01  0.496E-01
 -2.711  0.502E-01  0.502E-01
 -2.701  0.507E-01  0.507E-01
 -2.691  0.512E-01  0.512E-01
 -2.681  0.517E-01  0.517E-01
 -2.671  0.522E-01  0.522E-01
 -2.661  0.526E-01  0.526E-01
 -2.651  0.529E-01  0.529E-01
 -2.641  0.531E-01  0.531E-01
 -2.631  0.533E-01  0.533E-01
 -2.621  0.535E-01  0.535E-01
 -2.611  0.535E-01  0.535E-01
 -2.601  0.535E-01  0.535E-01
 -2.591  0.535E-01  0.535E-01
 -2.581  0.534E-01  0.534E-01
 -2.571  0.532E-01  0.532E-01
 -2.561  0.530E-01  0.530E-01
 -2.551  0.527E-01  0.527E-01
 -2.541  0.524E-01  0.524E-01
 -2.531  0.521E-01  0.521E-01
 -2.521  0.517E-01  0.517E-01
 -2.511  0.513E-01  0.513E-01
 -2.501  0.509E-01  0.509E-01
 -2.491  0.504E-01  0.504E-01
 -2.481  0.499E-01  0.499E-01
 -2.471  0.493E-01  0.493E-01
 -2.461  0.488E-01  0.488E-01
 -2.451  0.482E-01  0.482E-01
 -2.441  0.475E-01  0.475E-01
 -2.431  0.468E-01  0.468E-01
 -2.421  0.461E-01  0.461E-01
 -2.411  0.454E-01  0.454E-01
 -2.401  0.446E-01  0.446E-01
 -2.391  0.439E-01  0.439E-01
 -2.381  0.431E-01  0.431E-01
 -2.371  0.423E-01  0.423E-01
 -2.361  0.415E-01  0.415E-01
 -2.351  0.406E-01  0.406E-01
 -2.341  0.398E-01  0.398E-01
 -2.331  0.390E-01  0.390E-01
 -2.321  0.382E-01  0.382E-01
 -2.311  0.373E-01  0.373E-01
 -2.301  0.365E-01  0.365E-01
 -2.291  0.357E-01  0.357E-01
 -2.281  0.349E-01  0.349E-01
 -2.271  0.340E-01  0.340E-01
 -2.261  0.332E-01  0.332E-01
 -2.251  0.324E-01  0.324E-01
 -2.241  0.315E-01  0.315E-01
 -2.231  0.307E-01  0.307E-01
 -2.221  0.299E-01  0.299E-01
 -2.211  0.290E-01  0.290E-01
 -2.201  0.282E-01  0.282E-01
 -2.191  0.273E-01  0.273E-01
 -2.181  0.265E-01  0.265E-01
 -2.171  0.257E-01  0.257E-01
 -2.161  0.248E-01  0.248E-01
 -2.151  0.240E-01  0.240E-01
 -2.141  0.231E-01  0.231E-01
 -2.131  0.222E-01  0.222E-01
 -2.121  0.214E-01  0.214E-01
 -2.111  0.205E-01  0.205E-01
 -2.101  0.196E-01  0.196E-01
 -2.091  0.188E-01  0.188E-01
 -2.081  0.179E-01  0.179E-01
 -2.071  0.170E-01  0.170E-01
 -2.061  0.161E-01  0.161E-01
 -2.051  0.152E-01  0.152E-01
 -2.041  0.143E-01  0.143E-01
 -2.031  0.135E-01  0.135E-01
 -2.021  0.126E-01  0.126E-01
 -2.011  0.117E-01  0.117E-01
 -2.001  0.109E-01  0.109E-01
 -1.991  0.100E-01  0.100E-01
 -1.981  0.919E-02  0.919E-02
 -1.971  0.839E-02  0.839E-02
 -1.961  0.762E-02  0.762E-02
 -1.951  0.689E-02  0.689E-02
 -1.941  0.618E-02  0.618E-02
 -1.931  0.552E-02  0.552E-02
 -1.921  0.490E-02  0.490E-02
 -1.911  0.432E-02  0.432E-02
 -1.901  0.379E-02  0.379E-02
 -1.891  0.330E-02  0.330E-02
 -1.881  0.285E-02  0.285E-02
 -1.871  0.245E-02  0.245E-02
 -1.861  0.209E-02  0.209E-02
 -1.851  0.177E-02  0.177E-02
 -1.841  0.149E-02  0.149E-02
 -1.831  0.124E-02  0.124E-02
 -1.821  0.103E-02  0.103E-02
 -1.811  0.846E-03  0.846E-03
 -1.801  0.690E-03  0.690E-03
 -1.791  0.559E-03  0.559E-03
 -1.781  0.449E-03  0.449E-03
 -1.771  0.358E-03  0.358E-03
 -1.761  0.283E-03  0.283E-03
 -1.751  0.222E-03  0.222E-03
 -1.741  0.173E-03  0.173E-03
 -1.731  0.133E-03  0.133E-03
 -1.721  0.102E-03  0.102E-03
 -1.711  0.773E-04  0.773E-04
 -1.701  0.581E-04  0.581E-04
 -1.691  0.434E-04  0.434E-04
 -1.681  0.321E-04  0.321E-04
 -1.671  0.235E-04  0.235E-04
 -1.661  0.171E-04  0.171E-04
 -1.651  0.123E-04  0.123E-04
 -1.641  0.879E-05  0.879E-05
 -1.631  0.622E-05  0.622E-05
 -1.621  0.436E-05  0.436E-05
 -1.611  0.303E-05  0.303E-05
 -1.601  0.209E-05  0.209E-05
 -1.591  0.142E-05  0.142E-05
 -1.581  0.963E-06  0.963E-06
 -1.571  0.645E-06  0.645E-06
 -1.561  0.428E-06  0.428E-06
 -1.551  0.282E-06  0.282E-06
 -1.541  0.184E-06  0.184E-06
 -1.531  0.118E-06  0.118E-06
 -1.521  0.757E-07  0.757E-07
 -1.511  0.480E-07  0.480E-07
 -1.501  0.301E-07  0.301E-07
 -1.491  0.187E-07  0.187E-07
 -1.481  0.115E-07  0.115E-07
 -1.471  0.701E-08  0.701E-08
 -1.461  0.423E-08  0.423E-08
 -1.451  0.253E-08  0.253E-08
 -1.441  0.150E-08  0.150E-08
 -1.431  0.877E-09  0.877E-09
 -1.421  0.509E-09  0.509E-09
 -1.411  0.293E-09  0.293E-09
 -1.401  0.166E-09  0.166E-09
 -1.391  0.938E-10  0.938E-10
 -1.381  0.523E-10  0.523E-10
 -1.371  0.289E-10  0.289E-10
 -1.361  0.158E-10  0.158E-10
 -1.351  0.855E-11  0.855E-11
 -1.341  0.458E-11  0.458E-11
 -1.331  0.243E-11  0.243E-11
 -1.321  0.127E-11  0.127E-11
 -1.311  0.661E-12  0.661E-12
 -1.301  0.340E-12  0.340E-12
 -1.291  0.172E-12  0.172E-12
 -1.281  0.860E-13  0.860E-13
 -1.271  0.422E-13  0.422E-13
 -1.261  0.204E-13  0.204E-13
 -1.251  0.914E-14  0.914E-14
 -1.241  0.426E-14  0.426E-14
 -1.231  0.192E-14  0.192E-14
 -1.221  0.711E-15  0.711E-15
 -1.211  0.159E-15  0.159E-15
 -1.201  0.623E-16  0.623E-16
 -1.191  0.598E-17  0.598E-17
 -1.181  0.000E+00  0.000E+00
 -1.171  0.000E+00  0.000E+00
 -1.161  0.000E+00  0.000E+00
 -1.151  0.000E+00  0.000E+00
 -1.141  0.000E+00  0.000E+00
 -1.131  0.000E+00  0.000E+00
 -1.121  0.000E+00  0.000E+00
 -1.111  0.000E+00  0.000E+00
 -1.101  0.000E+00  0.000E+00
 -1.091  0.000E+00  0.000E+00
 -1.081  0.000E+00  0.000E+00
 -1.071  0.000E+00  0.000E+00
 -1.061  0.000E+00  0.000E+00
 -1.051  0.000E+00  0.000E+00
 -1.041  0.000E+00  0.000E+00
 -1.031  0.000E+00  0.000E+00
 -1.021  0.000E+00  0.000E+00
 -1.011  0.000E+00  0.000E+00
 -1.001  0.000E+00  0.000E+00
 -0.991  0.000E+00  0.000E+00
 -0.981  0.000E+00  0.000E+00
 -0.971  0.000E+00  0.000E+00
 -0.961  0.000E+00  0.000E+00
 -0.951  0.000E+00  0.000E+00
 -0.941  0.000E+00  0.000E+00
 -0.931  0.000E+00  0.000E+00
 -0.921  0.000E+00  0.000E+00
 -0.911  0.000E+00  0.000E+00
 -0.901  0.000E+00  0.000E+00
 -0.891  0.000E+00  0.000E+00
 -0.881  0.000E+00  0.000E+00
 -0.871  0.000E+00  0.000E+00
 -0.861  0.000E+00  0.000E+00
 -0.851  0.000E+00  0.000E+00
 -0.841  0.000E+00  0.000E+00
 -0.831  0.000E+00  0.000E+00
 -0.821  0.000E+00  0.000E+00
 -0.811  0.000E+00  0.000E+00
 -0.801  0.000E+00  0.000E+00
 -0.791  0.000E+00  0.000E+00
 -0.781  0.000E+00  0.000E+00
 -0.771  0.000E+00  0.000E+00
 -0.761  0.000E+00  0.000E+00
 -0.751  0.000E+00  0.000E+00
 -0.741  0.000E+00  0.000E+00
 -0.731  0.000E+00  0.000E+00
 -0.721  0.000E+00  0.000E+00
 -0.711  0.000E+00  0.000E+00
 -0.701  0.000E+00  0.000E+00
 -0.691  0.000E+00  0.000E+00
 -0.681  0.000E+00  0.000E+00
 -0.671  0.000E+00  0.000E+00
 -0.661  0.000E+00  0.000E+00
 -0.651  0.000E+00  0.000E+00
 -0.641  0.000E+00  0.000E+00
 -0.631  0.000E+00  0.000E+00
 -0.621  0.000E+00  0.000E+00
 -0.611  0.000E+00  0.000E+00
 -0.601  0.000E+00  0.000E+00
 -0.591  0.000E+00  0.000E+00
 -0.581  0.000E+00  0.000E+00
 -0.571  0.000E+00  0.000E+00
 -0.561  0.000E+00  0.000E+00
 -0.551  0.000E+00  0.000E+00
 -0.541  0.000E+00  0.000E+00
 -0.531  0.000E+00  0.000E+00
 -0.521  0.000E+00  0.000E+00
 -0.511  0.000E+00  0.000E+00
 -0.501  0.000E+00  0.000E+00
 -0.491  0.000E+00  0.000E+00
 -0.481  0.000E+00  0.000E+00
 -0.471  0.000E+00  0.000E+00
 -0.461  0.000E+00  0.000E+00
 -0.451  0.000E+00  0.000E+00
 -0.441  0.000E+00  0.000E+00
 -0.431  0.000E+00  0.000E+00
 -0.421  0.000E+00  0.000E+00
 -0.411  0.000E+00  0.000E+00
 -0.401  0.000E+00  0.000E+00
 -0.391  0.000E+00  0.000E+00
 -0.381  0.000E+00  0.000E+00
 -0.371  0.000E+00  0.000E+00
 -0.361  0.000E+00  0.000E+00
 -0.351  0.000E+00  0.000E+00
 -0.341  0.000E+00  0.000E+00
 -0.331  0.000E+00  0.000E+00
 -0.321  0.000E+00  0.000E+00
 -0.311  0.000E+00  0.000E+00
 -0.301  0.000E+00  0.000E+00
 -0.291  0.000E+00  0.000E+00
 -0.281  0.000E+00  0.000E+00
 -0.271  0.000E+00  0.000E+00
 -0.261  0.000E+00  0.000E+00
 -0.251  0.000E+00  0.000E+00
 -0.241  0.000E+00  0.000E+00
 -0.231  0.000E+00  0.000E+00
 -0.221  0.000E+00  0.000E+00
 -0.211  0.000E+00  0.000E+00
 -0.201  0.000E+00  0.000E+00
 -0.191  0.000E+00  0.000E+00
 -0.181  0.000E+00  0.000E+00
 -0.171  0.000E+00  0.000E+00
 -0.161  0.000E+00  0.000E+00
 -0.151  0.000E+00  0.000E+00
 -0.141  0.000E+00  0.000E+00
 -0.131  0.000E+00  0.000E+00
 -0.121  0.000E+00  0.000E+00
 -0.111  0.000E+00  0.000E+00
 -0.101  0.000E+00  0.000E+00
 -0.091  0.000E+00  0.000E+00
 -0.081  0.000E+00  0.000E+00
 -0.071  0.000E+00  0.000E+00
 -0.061  0.000E+00  0.000E+00
 -0.051  0.000E+00  0.000E+00
 -0.041  0.000E+00  0.000E+00
 -0.031  0.000E+00  0.000E+00
 -0.021  0.000E+00  0.000E+00
 -0.011  0.000E+00  0.000E+00
 -0.001  0.000E+00  0.000E+00
  0.009  0.000E+00  0.000E+00
  0.019  0.000E+00  0.000E+00
  0.029  0.000E+00  0.000E+00
  0.039  0.000E+00  0.000E+00
  0.049  0.000E+00  0.000E+00
  0.059  0.000E+00  0.000E+00
  0.069  0.000E+00  0.000E+00
  0.079  0.000E+00  0.000E+00
  0.089  0.000E+00  0.000E+00
  0.099  0.000E+00  0.000E+00
  0.109  0.000E+00  0.000E+00
  0.119  0.000E+00  0.000E+00
  0.129  0.000E+00  0.000E+00
  0.139  0.000E+00  0.000E+00
  0.149  0.000E+00  0.000E+00
  0.159  0.000E+00  0.000E+00
  0.169  0.000E+00  0.000E+00
  0.179  0.000E+00  0.000E+00
  0.189  0.000E+00  0.000E+00
  0.199  0.000E+00  0.000E+00
  0.209  0.000E+00  0.000E+00
  0.219  0.000E+00  0.000E+00
  0.229  0.000E+00  0.000E+00
  0.239  0.000E+00  0.000E+00
  0.249  0.000E+00  0.000E+00
  0.259  0.000E+00  0.000E+00
  0.269  0.000E+00  0.000E+00
  0.279  0.000E+00  0.000E+00
  0.289  0.000E+00  0.000E+00
  0.299  0.000E+00  0.000E+00
  0.309  0.000E+00  0.000E+00
  0.319  0.000E+00  0.000E+00
  0.329  0.000E+00  0.000E+00
  0.339  0.000E+00  0.000E+00
  0.349  0.000E+00  0.000E+00
  0.359  0.000E+00  0.000E+00
  0.369  0.000E+00  0.000E+00
  0.379  0.000E+00  0.000E+00
  0.389  0.000E+00  0.000E+00
  0.399  0.000E+00  0.000E+00
  0.409  0.000E+00  0.000E+00
  0.419  0.000E+00  0.000E+00
  0.429  0.000E+00  0.000E+00
  0.439  0.000E+00  0.000E+00
  0.449  0.000E+00  0.000E+00
  0.459  0.000E+00  0.000E+00
  0.469  0.000E+00  0.000E+00
  0.479  0.000E+00  0.000E+00
  0.489  0.000E+00  0.000E+00
  0.499  0.000E+00  0.000E+00
  0.509  0.000E+00  0.000E+00
  0.519  0.000E+00  0.000E+00
  0.529  0.000E+00  0.000E+00
  0.539  0.000E+00  0.000E+00
  0.549  0.000E+00  0.000E+00
  0.559  0.000E+00  0.000E+00
  0.569  0.000E+00  0.000E+00
  0.579  0.000E+00  0.000E+00
  0.589  0.000E+00  0.000E+00
  0.599  0.000E+00  0.000E+00
  0.609  0.000E+00  0.000E+00
  0.619  0.000E+00  0.000E+00
  0.629  0.000E+00  0.000E+00
  0.639  0.000E+00  0.000E+00
  0.649  0.000E+00  0.000E+00
  0.659  0.000E+00  0.000E+00
  0.669  0.000E+00  0.000E+00
  0.679  0.000E+00  0.000E+00
  0.689  0.000E+00  0.000E+00
  0.699  0.000E+00  0.000E+00
  0.709  0.000E+00  0.000E+00
  0.719  0.000E+00  0.000E+00
  0.729  0.000E+00  0.000E+00
  0.739  0.000E+00  0.000E+00
  0.749  0.000E+00  0.000E+00
  0.759  0.000E+00  0.000E+00
  0.769  0.000E+00  0.000E+00
  0.779  0.000E+00  0.000E+00
  0.789  0.000E+00  0.000E+00
  0.799  0.000E+00  0.000E+00
  0.809  0.000E+00  0.000E+00
  0.819  0.000E+00  0.000E+00
  0.829  0.000E+00  0.000E+00
  0.839  0.000E+00  0.000E+00
  0.849  0.000E+00  0.000E+00
  0.859  0.000E+00  0.000E+00
  0.869  0.000E+00  0.000E+00
  0.879  0.000E+00  0.000E+00
  0.889  0.000E+00  0.000E+00
  0.899  0.000E+00  0.000E+00
  0.909  0.000E+00  0.000E+00
  0.919  0.000E+00  0.000E+00
  0.929  0.000E+00  0.000E+00
  0.939  0.000E+00  0.000E+00
  0.949  0.000E+00  0.000E+00
  0.959  0.000E+00  0.000E+00
  0.969  0.000E+00  0.000E+00
  0.979  0.000E+00  0.000E+00
  0.989  0.000E+00  0.000E+00
  0.999  0.000E+00  0.000E+00
  1.009  0.000E+00  0.000E+00
  1.019  0.000E+00  0.000E+00
  1.029  0.000E+00  0.000E+00
  1.039  0.000E+00  0.000E+00
  1.049  0.000E+00  0.000E+00
  1.059  0.000E+00  0.000E+00
  1.069  0.000E+00  0.000E+00
  1.079  0.000E+00  0.000E+00
  1.089  0.000E+00  0.000E+00
  1.099  0.000E+00  0.000E+00
  1.109  0.000E+00  0.000E+00
  1.119  0.000E+00  0.000E+00
  1.129  0.000E+00  0.000E+00
  1.139  0.000E+00  0.000E+00
  1.149  0.000E+00  0.000E+00
  1.159  0.000E+00  0.000E+00
  1.169  0.000E+00  0.000E+00
  1.179  0.000E+00  0.000E+00
  1.189  0.000E+00  0.000E+00
  1.199  0.000E+00  0.000E+00
  1.209  0.000E+00  0.000E+00
  1.219  0.000E+00  0.000E+00
  1.229  0.000E+00  0.000E+00
  1.239  0.000E+00  0.000E+00
  1.249  0.000E+00  0.000E+00
  1.259  0.000E+00  0.000E+00
  1.269  0.000E+00  0.000E+00
  1.279  0.000E+00  0.000E+00
  1.289  0.000E+00  0.000E+00
  1.299  0.000E+00  0.000E+00
  1.309  0.000E+00  0.000E+00
  1.319  0.000E+00  0.000E+00
  1.329  0.000E+00  0.000E+00
  1.339  0.000E+00  0.000E+00
  1.349  0.000E+00  0.000E+00
  1.359  0.000E+00  0.000E+00
  1.369  0.000E+00  0.000E+00
  1.379  0.000E+00  0.000E+00
  1.389  0.000E+00  0.000E+00
  1.399  0.000E+00  0.000E+00
  1.409  0.000E+00  0.000E+00
  1.419  0.000E+00  0.000E+00
  1.429  0.000E+00  0.000E+00
  1.439  0.000E+00  0.000E+00
  1.449  0.000E+00  0.000E+00
  1.459  0.000E+00  0.000E+00
  1.469  0.000E+00  0.000E+00
  1.479  0.000E+00  0.000E+00
  1.489  0.000E+00  0.000E+00
  1.499  0.000E+00  0.000E+00
  1.509  0.000E+00  0.000E+00
  1.519  0.000E+00  0.000E+00
  1.529  0.000E+00  0.000E+00
  1.539  0.000E+00  0.000E+00
  1.549  0.000E+00  0.000E+00
  1.559  0.000E+00  0.000E+00
  1.569  0.000E+00  0.000E+00
  1.579  0.000E+00  0.000E+00
  1.589  0.000E+00  0.000E+00
  1.599  0.000E+00  0.000E+00
  1.609  0.000E+00  0.000E+00
  1.619  0.000E+00  0.000E+00
  1.629  0.000E+00  0.000E+00
  1.639  0.000E+00  0.000E+00
  1.649  0.000E+00  0.000E+00
  1.659  0.000E+00  0.000E+00
  1.669  0.000E+00  0.000E+00
  1.679  0.000E+00  0.000E+00
  1.689  0.000E+00  0.000E+00
  1.699  0.000E+00  0.000E+00
  1.709  0.000E+00  0.000E+00
  1.719  0.000E+00  0.000E+00
  1.729  0.000E+00  0.000E+00
  1.739  0.000E+00  0.000E+00
  1.749  0.167E-14  0.167E-14
  1.759  0.348E-14  0.348E-14
  1.769  0.718E-14  0.718E-14
  1.779  0.235E-13  0.235E-13
  1.789  0.481E-13  0.481E-13
  1.799  0.974E-13  0.974E-13
  1.809  0.195E-12  0.195E-12
  1.819  0.387E-12  0.387E-12
  1.829  0.758E-12  0.758E-12
  1.839  0.148E-11  0.148E-11
  1.849  0.284E-11  0.284E-11
  1.859  0.540E-11  0.540E-11
  1.869  0.102E-10  0.102E-10
  1.879  0.190E-10  0.190E-10
  1.889  0.349E-10  0.349E-10
  1.899  0.637E-10  0.637E-10
  1.909  0.115E-09  0.115E-09
  1.919  0.205E-09  0.205E-09
  1.929  0.363E-09  0.363E-09
  1.939  0.635E-09  0.635E-09
  1.949  0.110E-08  0.110E-08
  1.959  0.188E-08  0.188E-08
  1.969  0.319E-08  0.319E-08
  1.979  0.536E-08  0.536E-08
  1.989  0.890E-08  0.890E-08
  1.999  0.146E-07  0.146E-07
  2.009  0.238E-07  0.238E-07
  2.019  0.384E-07  0.384E-07
  2.029  0.612E-07  0.612E-07
  2.039  0.965E-07  0.965E-07
  2.049  0.151E-06  0.151E-06
  2.059  0.233E-06  0.233E-06
  2.069  0.357E-06  0.357E-06
  2.079  0.541E-06  0.541E-06
  2.089  0.811E-06  0.811E-06
  2.099  0.120E-05  0.120E-05
  2.109  0.177E-05  0.177E-05
  2.119  0.258E-05  0.258E-05
  2.129  0.372E-05  0.372E-05
  2.139  0.531E-05  0.531E-05
  2.149  0.750E-05  0.750E-05
  2.159  0.105E-04  0.105E-04
  2.169  0.146E-04  0.146E-04
  2.179  0.200E-04  0.200E-04
  2.189  0.272E-04  0.272E-04
  2.199  0.367E-04  0.367E-04
  2.209  0.489E-04  0.489E-04
  2.219  0.648E-04  0.648E-04
  2.229  0.849E-04  0.849E-04
  2.239  0.110E-03  0.110E-03
  2.249  0.142E-03  0.142E-03
  2.259  0.181E-03  0.181E-03
  2.269  0.230E-03  0.230E-03
  2.279  0.288E-03  0.288E-03
  2.289  0.359E-03  0.359E-03
  2.299  0.443E-03  0.443E-03
  2.309  0.543E-03  0.543E-03
  2.319  0.660E-03  0.660E-03
  2.329  0.796E-03  0.796E-03
  2.339  0.954E-03  0.954E-03
  2.349  0.113E-02  0.113E-02
  2.359  0.134E-02  0.134E-02
  2.369  0.157E-02  0.157E-02
  2.379  0.183E-02  0.183E-02
  2.389  0.212E-02  0.212E-02
  2.399  0.244E-02  0.244E-02
  2.409  0.279E-02  0.279E-02
  2.419  0.317E-02  0.317E-02
  2.429  0.358E-02  0.358E-02
  2.439  0.404E-02  0.404E-02
  2.449  0.452E-02  0.452E-02
  2.459  0.505E-02  0.505E-02
  2.469  0.561E-02  0.561E-02
  2.479  0.621E-02  0.621E-02
  2.489  0.685E-02  0.685E-02
  2.499  0.755E-02  0.755E-02
  2.509  0.829E-02  0.829E-02
  2.519  0.909E-02  0.909E-02
  2.529  0.996E-02  0.996E-02
  2.539  0.109E-01  0.109E-01
  2.549  0.119E-01  0.119E-01
  2.559  0.130E-01  0.130E-01
  2.569  0.142E-01  0.142E-01
  2.579  0.156E-01  0.156E-01
  2.589  0.171E-01  0.171E-01
  2.599  0.187E-01  0.187E-01
  2.609  0.205E-01  0.205E-01
  2.619  0.225E-01  0.225E-01
  2.629  0.246E-01  0.246E-01
  2.639  0.270E-01  0.270E-01
  2.649  0.297E-01  0.297E-01
  2.659  0.325E-01  0.325E-01
  2.669  0.356E-01  0.356E-01
  2.679  0.390E-01  0.390E-01
  2.689  0.426E-01  0.426E-01
  2.699  0.464E-01  0.464E-01
  2.709  0.505E-01  0.505E-01
  2.719  0.548E-01  0.548E-01
  2.729  0.594E-01  0.594E-01
  2.739  0.641E-01  0.641E-01
  2.749  0.690E-01  0.690E-01
  2.759  0.741E-01  0.741E-01
  2.769  0.793E-01  0.793E-01
  2.779  0.846E-01  0.846E-01
  2.789  0.900E-01  0.900E-01
  2.799  0.955E-01  0.955E-01
  2.809  0.101E+00  0.101E+00
  2.819  0.107E+00  0.107E+00
  2.829  0.112E+00  0.112E+00
  2.839  0.118E+00  0.118E+00
  2.849  0.124E+00  0.124E+00
  2.859  0.129E+00  0.129E+00
  2.869  0.135E+00  0.135E+00
  2.879  0.141E+00  0.141E+00
  2.889  0.147E+00  0.147E+00
  2.899  0.152E+00  0.152E+00
  2.909  0.158E+00  0.158E+00
  2.919  0.163E+00  0.163E+00
  2.929  0.169E+00  0.169E+00
  2.939  0.175E+00  0.175E+00
  2.949  0.180E+00  0.180E+00
  2.959  0.185E+00  0.185E+00
  2.969  0.191E+00  0.191E+00
  2.979  0.196E+00  0.196E+00
  2.989  0.201E+00  0.201E+00
  2.999  0.206E+00  0.206E+00
  3.009  0.211E+00  0.211E+00
  3.019  0.216E+00  0.216E+00
  3.029  0.221E+00  0.221E+00
  3.039  0.226E+00  0.226E+00
  3.049  0.232E+00  0.232E+00
  3.059  0.237E+00  0.237E+00
  3.069  0.242E+00  0.242E+00
  3.079  0.247E+00  0.247E+00
  3.089  0.253E+00  0.253E+00
  3.099  0.259E+00  0.259E+00
  3.109  0.265E+00  0.265E+00
  3.119  0.271E+00  0.271E+00
  3.129  0.277E+00  0.277E+00
  3.139  0.283E+00  0.283E+00
  3.149  0.290E+00  0.290E+00
  3.159  0.296E+00  0.296E+00
  3.169  0.303E+00  0.303E+00
  3.179  0.309E+00  0.309E+00
  3.189  0.315E+00  0.315E+00
  3.199  0.322E+00  0.322E+00
  3.209  0.328E+00  0.328E+00
  3.219  0.334E+00  0.334E+00
  3.229  0.340E+00  0.340E+00
  3.239  0.346E+00  0.346E+00
  3.249  0.351E+00  0.351E+00
  3.259  0.356E+00  0.356E+00
  3.269  0.361E+00  0.361E+00
  3.279  0.366E+00  0.366E+00
  3.289  0.370E+00  0.370E+00
  3.299  0.375E+00  0.375E+00
  3.309  0.379E+00  0.379E+00
  3.319  0.383E+00  0.383E+00
  3.329  0.386E+00  0.386E+00
  3.339  0.390E+00  0.390E+00
  3.349  0.393E+00  0.393E+00
  3.359  0.396E+00  0.396E+00
  3.369  0.399E+00  0.399E+00
  3.379  0.401E+00  0.401E+00
  3.389  0.403E+00  0.403E+00
  3.399  0.405E+00  0.405E+00
  3.409  0.407E+00  0.407E+00
  3.419  0.408E+00  0.408E+00
  3.429  0.409E+00  0.409E+00
  3.439  0.410E+00  0.410E+00
  3.449  0.410E+00  0.410E+00
  3.459  0.409E+00  0.409E+00
  3.469  0.408E+00  0.408E+00
  3.479  0.407E+00  0.407E+00
  3.489  0.405E+00  0.405E+00
  3.499  0.403E+00  0.403E+00
  3.509  0.400E+00  0.400E+00
  3.519  0.396E+00  0.396E+00
  3.529  0.392E+00  0.392E+00
  3.539  0.387E+00  0.387E+00
  3.549  0.382E+00  0.382E+00
  3.559  0.376E+00  0.376E+00
  3.569  0.369E+00  0.369E+00
  3.579  0.362E+00  0.362E+00
  3.589  0.355E+00  0.355E+00
  3.599  0.347E+00  0.347E+00
  3.609  0.338E+00  0.338E+00
  3.619  0.330E+00  0.330E+00
  3.629  0.321E+00  0.321E+00
  3.639  0.312E+00  0.312E+00
  3.649  0.303E+00  0.303E+00
  3.659  0.294E+00  0.294E+00
  3.669  0.285E+00  0.285E+00
  3.679  0.276E+00  0.276E+00
  3.689  0.268E+00  0.268E+00
  3.699  0.260E+00  0.260E+00
  3.709  0.252E+00  0.252E+00
  3.719  0.244E+00  0.244E+00
  3.729  0.237E+00  0.237E+00
  3.739  0.230E+00  0.230E+00
  3.749  0.223E+00  0.223E+00
  3.759  0.217E+00  0.217E+00
  3.769  0.211E+00  0.211E+00
  3.779  0.206E+00  0.206E+00
  3.789  0.201E+00  0.201E+00
  3.799  0.197E+00  0.197E+00
  3.809  0.192E+00  0.192E+00
  3.819  0.189E+00  0.189E+00
  3.829  0.185E+00  0.185E+00
  3.839  0.183E+00  0.183E+00
  3.849  0.180E+00  0.180E+00
  3.859  0.178E+00  0.178E+00
  3.869  0.177E+00  0.177E+00
  3.879  0.176E+00  0.176E+00
  3.889  0.175E+00  0.175E+00
  3.899  0.175E+00  0.175E+00
  3.909  0.175E+00  0.175E+00
  3.919  0.176E+00  0.176E+00
  3.929  0.177E+00  0.177E+00
  3.939  0.178E+00  0.178E+00
  3.949  0.179E+00  0.179E+00
  3.959  0.180E+00  0.180E+00
  3.969  0.182E+00  0.182E+00
  3.979  0.183E+00  0.183E+00
  3.989  0.184E+00  0.184E+00
  3.999  0.185E+00  0.185E+00
  4.009  0.186E+00  0.186E+00
  4.019  0.187E+00  0.187E+00
  4.029  0.187E+00  0.187E+00
  4.039  0.187E+00  0.187E+00
  4.049  0.186E+00  0.186E+00
  4.059  0.185E+00  0.185E+00
  4.069  0.184E+00  0.184E+00
  4.079  0.182E+00  0.182E+00
  4.089  0.180E+00  0.180E+00
  4.099  0.178E+00  0.178E+00
  4.109  0.176E+00  0.176E+00
  4.119  0.173E+00  0.173E+00
  4.129  0.170E+00  0.170E+00
  4.139  0.167E+00  0.167E+00
  4.149  0.164E+00  0.164E+00
  4.159  0.161E+00  0.161E+00
  4.169  0.158E+00  0.158E+00
  4.179  0.155E+00  0.155E+00
  4.189  0.152E+00  0.152E+00
  4.199  0.149E+00  0.149E+00
  4.209  0.146E+00  0.146E+00
  4.219  0.143E+00  0.143E+00
  4.229  0.139E+00  0.139E+00
  4.239  0.136E+00  0.136E+00
  4.249  0.133E+00  0.133E+00
  4.259  0.130E+00  0.130E+00
  4.269  0.127E+00  0.127E+00
  4.279  0.124E+00  0.124E+00
  4.289  0.121E+00  0.121E+00
  4.299  0.118E+00  0.118E+00
  4.309  0.115E+00  0.115E+00
  4.319  0.113E+00  0.113E+00
  4.329  0.110E+00  0.110E+00
  4.339  0.108E+00  0.108E+00
  4.349  0.106E+00  0.106E+00
  4.359  0.104E+00  0.104E+00
  4.369  0.102E+00  0.102E+00
  4.379  0.101E+00  0.101E+00
  4.389  0.998E-01  0.998E-01
  4.399  0.988E-01  0.988E-01
  4.409  0.981E-01  0.981E-01
  4.419  0.975E-01  0.975E-01
  4.429  0.970E-01  0.970E-01
  4.439  0.965E-01  0.965E-01
  4.449  0.961E-01  0.961E-01
  4.459  0.956E-01  0.956E-01
  4.469  0.951E-01  0.951E-01
  4.479  0.944E-01  0.944E-01
  4.489  0.936E-01  0.936E-01
  4.499  0.927E-01  0.927E-01
  4.509  0.915E-01  0.915E-01
  4.519  0.901E-01  0.901E-01
  4.529  0.885E-01  0.885E-01
  4.539  0.867E-01  0.867E-01
  4.549  0.847E-01  0.847E-01
  4.559  0.825E-01  0.825E-01
  4.569  0.803E-01  0.803E-01
  4.579  0.779E-01  0.779E-01
  4.589  0.756E-01  0.756E-01
  4.599  0.732E-01  0.732E-01
  4.609  0.708E-01  0.708E-01
  4.619  0.685E-01  0.685E-01
  4.629  0.664E-01  0.664E-01
  4.639  0.643E-01  0.643E-01
  4.649  0.625E-01  0.625E-01
  4.659  0.607E-01  0.607E-01
  4.669  0.592E-01  0.592E-01
  4.679  0.578E-01  0.578E-01
  4.689  0.566E-01  0.566E-01
  4.699  0.556E-01  0.556E-01
  4.709  0.547E-01  0.547E-01
  4.719  0.539E-01  0.539E-01
  4.729  0.533E-01  0.533E-01
  4.739  0.527E-01  0.527E-01
  4.749  0.523E-01  0.523E-01
  4.759  0.518E-01  0.518E-01
  4.769  0.515E-01  0.515E-01
  4.779  0.512E-01  0.512E-01
  4.789  0.509E-01  0.509E-01
  4.799  0.506E-01  0.506E-01
  4.809  0.504E-01  0.504E-01
  4.819  0.502E-01  0.502E-01
  4.829  0.500E-01  0.500E-01
  4.839  0.498E-01  0.498E-01
  4.849  0.496E-01  0.496E-01
  4.859  0.494E-01  0.494E-01
  4.869  0.493E-01  0.493E-01
  4.879  0.492E-01  0.492E-01
  4.889  0.491E-01  0.491E-01
  4.899  0.490E-01  0.490E-01
  4.909  0.490E-01  0.490E-01
  4.919  0.491E-01  0.491E-01
  4.929  0.492E-01  0.492E-01
  4.939  0.493E-01  0.493E-01
  4.949  0.496E-01  0.496E-01
  4.959  0.499E-01  0.499E-01
  4.969  0.503E-01  0.503E-01
  4.979  0.508E-01  0.508E-01
  4.989  0.513E-01  0.513E-01
  4.999  0.520E-01  0.520E-01
  5.009  0.528E-01  0.528E-01
  5.019  0.537E-01  0.537E-01
  5.029  0.547E-01  0.547E-01
  5.039  0.559E-01  0.559E-01
  5.049  0.571E-01  0.571E-01
  5.059  0.584E-01  0.584E-01
  5.069  0.598E-01  0.598E-01
  5.079  0.612E-01  0.612E-01
  5.089  0.627E-01  0.627E-01
  5.099  0.643E-01  0.643E-01
  5.109  0.658E-01  0.658E-01
  5.119  0.674E-01  0.674E-01
  5.129  0.689E-01  0.689E-01
  5.139  0.704E-01  0.704E-01
  5.149  0.718E-01  0.718E-01
  5.159  0.731E-01  0.731E-01
  5.169  0.744E-01  0.744E-01
  5.179  0.755E-01  0.755E-01
  5.189  0.765E-01  0.765E-01
  5.199  0.774E-01  0.774E-01
  5.209  0.781E-01  0.781E-01
  5.219  0.787E-01  0.787E-01
  5.229  0.791E-01  0.791E-01
  5.239  0.794E-01  0.794E-01
  5.249  0.796E-01  0.796E-01
  5.259  0.796E-01  0.796E-01
  5.269  0.795E-01  0.795E-01
  5.279  0.793E-01  0.793E-01
  5.289  0.789E-01  0.789E-01
  5.299  0.784E-01  0.784E-01
  5.309  0.778E-01  0.778E-01
  5.319  0.771E-01  0.771E-01
  5.329  0.763E-01  0.763E-01
  5.339  0.754E-01  0.754E-01
  5.349  0.743E-01  0.743E-01
  5.359  0.732E-01  0.732E-01
  5.369  0.720E-01  0.720E-01
  5.379  0.707E-01  0.707E-01
  5.389  0.693E-01  0.693E-01
  5.399  0.680E-01  0.680E-01
  5.409  0.665E-01  0.665E-01
  5.419  0.651E-01  0.651E-01
  5.429  0.637E-01  0.637E-01
  5.439  0.623E-01  0.623E-01
  5.449  0.610E-01  0.610E-01
  5.459  0.598E-01  0.598E-01
  5.469  0.587E-01  0.587E-01
  5.479  0.577E-01  0.577E-01
  5.489  0.569E-01  0.569E-01
  5.499  0.563E-01  0.563E-01
  5.509  0.558E-01  0.558E-01
  5.519  0.555E-01  0.555E-01
  5.529  0.554E-01  0.554E-01
  5.539  0.555E-01  0.555E-01
  5.549  0.557E-01  0.557E-01
  5.559  0.562E-01  0.562E-01
  5.569  0.568E-01  0.568E-01
  5.579  0.575E-01  0.575E-01
  5.589  0.583E-01  0.583E-01
  5.599  0.592E-01  0.592E-01
  5.609  0.601E-01  0.601E-01
  5.619  0.611E-01  0.611E-01
  5.629  0.620E-01  0.620E-01
  5.639  0.630E-01  0.630E-01
  5.649  0.639E-01  0.639E-01
  5.659  0.647E-01  0.647E-01
  5.669  0.654E-01  0.654E-01
  5.679  0.659E-01  0.659E-01
  5.689  0.664E-01  0.664E-01
  5.699  0.667E-01  0.667E-01
  5.709  0.668E-01  0.668E-01
  5.719  0.668E-01  0.668E-01
  5.729  0.666E-01  0.666E-01
  5.739  0.662E-01  0.662E-01
  5.749  0.656E-01  0.656E-01
  5.759  0.650E-01  0.650E-01
  5.769  0.641E-01  0.641E-01
  5.779  0.631E-01  0.631E-01
  5.789  0.620E-01  0.620E-01
  5.799  0.609E-01  0.609E-01
  5.809  0.596E-01  0.596E-01
  5.819  0.583E-01  0.583E-01
  5.829  0.569E-01  0.569E-01
  5.839  0.555E-01  0.555E-01
  5.849  0.541E-01  0.541E-01
  5.859  0.528E-01  0.528E-01
  5.869  0.515E-01  0.515E-01
  5.879  0.503E-01  0.503E-01
  5.889  0.491E-01  0.491E-01
  5.899  0.481E-01  0.481E-01
  5.909  0.473E-01  0.473E-01
  5.919  0.465E-01  0.465E-01
  5.929  0.459E-01  0.459E-01
  5.939  0.455E-01  0.455E-01
  5.949  0.452E-01  0.452E-01
  5.959  0.451E-01  0.451E-01
  5.969  0.452E-01  0.452E-01
  5.979  0.454E-01  0.454E-01
  5.989  0.458E-01  0.458E-01
  5.999  0.463E-01  0.463E-01
  6.009  0.470E-01  0.470E-01
  6.019  0.477E-01  0.477E-01
  6.029  0.486E-01  0.486E-01
  6.039  0.495E-01  0.495E-01
  6.049  0.505E-01  0.505E-01
  6.059  0.515E-01  0.515E-01
  6.069  0.525E-01  0.525E-01
  6.079  0.534E-01  0.534E-01
  6.089  0.543E-01  0.543E-01
  6.099  0.551E-01  0.551E-01
  6.109  0.558E-01  0.558E-01
  6.119  0.564E-01  0.564E-01
  6.129  0.569E-01  0.569E-01
  6.139  0.572E-01  0.572E-01
  6.149  0.574E-01  0.574E-01
  6.159  0.574E-01  0.574E-01
  6.169  0.573E-01  0.573E-01
  6.179  0.571E-01  0.571E-01
  6.189  0.567E-01  0.567E-01
  6.199  0.562E-01  0.562E-01
  6.209  0.555E-01  0.555E-01
  6.219  0.548E-01  0.548E-01
  6.229  0.540E-01  0.540E-01
  6.239  0.531E-01  0.531E-01
  6.249  0.521E-01  0.521E-01
  6.259  0.512E-01  0.512E-01
  6.269  0.502E-01  0.502E-01
  6.279  0.492E-01  0.492E-01
  6.289  0.482E-01  0.482E-01
  6.299  0.472E-01  0.472E-01
  6.309  0.463E-01  0.463E-01
  6.319  0.454E-01  0.454E-01
  6.329  0.446E-01  0.446E-01
  6.339  0.439E-01  0.439E-01
  6.349  0.432E-01  0.432E-01
  6.359  0.427E-01  0.427E-01
  6.369  0.422E-01  0.422E-01
  6.379  0.419E-01  0.419E-01
  6.389  0.417E-01  0.417E-01
  6.399  0.416E-01  0.416E-01
  6.409  0.416E-01  0.416E-01
  6.419  0.418E-01  0.418E-01
  6.429  0.420E-01  0.420E-01
  6.439  0.423E-01  0.423E-01
  6.449  0.427E-01  0.427E-01
  6.459  0.432E-01  0.432E-01
  6.469  0.437E-01  0.437E-01
  6.479  0.443E-01  0.443E-01
  6.489  0.449E-01  0.449E-01
  6.499  0.455E-01  0.455E-01
  6.509  0.461E-01  0.461E-01
  6.519  0.467E-01  0.467E-01
  6.529  0.472E-01  0.472E-01
  6.539  0.476E-01  0.476E-01
  6.549  0.480E-01  0.480E-01
  6.559  0.482E-01  0.482E-01
  6.569  0.484E-01  0.484E-01
  6.579  0.485E-01  0.485E-01
  6.589  0.485E-01  0.485E-01
  6.599  0.483E-01  0.483E-01
  6.609  0.481E-01  0.481E-01
  6.619  0.478E-01  0.478E-01
  6.629  0.475E-01  0.475E-01
  6.639  0.470E-01  0.470E-01
  6.649  0.466E-01  0.466E-01
  6.659  0.460E-01  0.460E-01
  6.669  0.455E-01  0.455E-01
  6.679  0.449E-01  0.449E-01
  6.689  0.444E-01  0.444E-01
  6.699  0.438E-01  0.438E-01
  6.709  0.432E-01  0.432E-01
  6.719  0.427E-01  0.427E-01
  6.729  0.421E-01  0.421E-01
  6.739  0.416E-01  0.416E-01
  6.749  0.411E-01  0.411E-01
  6.759  0.406E-01  0.406E-01
  6.769  0.401E-01  0.401E-01
  6.779  0.397E-01  0.397E-01
  6.789  0.393E-01  0.393E-01
  6.799  0.389E-01  0.389E-01
  6.809  0.385E-01  0.385E-01
  6.819  0.382E-01  0.382E-01
  6.829  0.379E-01  0.379E-01
  6.839  0.376E-01  0.376E-01
  6.849  0.374E-01  0.374E-01
  6.859  0.372E-01  0.372E-01
  6.869  0.371E-01  0.371E-01
  6.879  0.370E-01  0.370E-01
  6.889  0.370E-01  0.370E-01
  6.899  0.370E-01  0.370E-01
  6.909  0.370E-01  0.370E-01
  6.919  0.371E-01  0.371E-01
  6.929  0.372E-01  0.372E-01
  6.939  0.374E-01  0.374E-01
  6.949  0.376E-01  0.376E-01
  6.959  0.378E-01  0.378E-01
  6.969  0.380E-01  0.380E-01
  6.979  0.382E-01  0.382E-01
  6.989  0.383E-01  0.383E-01
  6.999  0.385E-01  0.385E-01
  7.009  0.386E-01  0.386E-01
  7.019  0.387E-01  0.387E-01
  7.029  0.388E-01  0.388E-01
  7.039  0.388E-01  0.388E-01
  7.049  0.387E-01  0.387E-01
  7.059  0.386E-01  0.386E-01
  7.069  0.384E-01  0.384E-01
  7.079  0.382E-01  0.382E-01
  7.089  0.380E-01  0.380E-01
  7.099  0.377E-01  0.377E-01
  7.109  0.374E-01  0.374E-01
  7.119  0.371E-01  0.371E-01
  7.129  0.367E-01  0.367E-01
  7.139  0.364E-01  0.364E-01
  7.149  0.362E-01  0.362E-01
  7.159  0.359E-01  0.359E-01
  7.169  0.357E-01  0.357E-01
  7.179  0.356E-01  0.356E-01
  7.189  0.355E-01  0.355E-01
  7.199  0.355E-01  0.355E-01
  7.209  0.355E-01  0.355E-01
  7.219  0.356E-01  0.356E-01
  7.229  0.357E-01  0.357E-01
  7.239  0.359E-01  0.359E-01
  7.249  0.361E-01  0.361E-01
  7.259  0.364E-01  0.364E-01
  7.269  0.366E-01  0.366E-01
  7.279  0.368E-01  0.368E-01
  7.289  0.370E-01  0.370E-01
  7.299  0.372E-01  0.372E-01
  7.309  0.372E-01  0.372E-01
  7.319  0.372E-01  0.372E-01
  7.329  0.372E-01  0.372E-01
  7.339  0.370E-01  0.370E-01
  7.349  0.367E-01  0.367E-01
  7.359  0.363E-01  0.363E-01
  7.369  0.358E-01  0.358E-01
  7.379  0.353E-01  0.353E-01
  7.389  0.347E-01  0.347E-01
  7.399  0.340E-01  0.340E-01
  7.409  0.333E-01  0.333E-01
  7.419  0.325E-01  0.325E-01
  7.429  0.318E-01  0.318E-01
  7.439  0.311E-01  0.311E-01
  7.449  0.304E-01  0.304E-01
  7.459  0.298E-01  0.298E-01
  7.469  0.292E-01  0.292E-01
  7.479  0.287E-01  0.287E-01
  7.489  0.283E-01  0.283E-01
  7.499  0.280E-01  0.280E-01
  7.509  0.277E-01  0.277E-01
  7.519  0.276E-01  0.276E-01
  7.529  0.275E-01  0.275E-01
  7.539  0.275E-01  0.275E-01
  7.549  0.275E-01  0.275E-01
  7.559  0.276E-01  0.276E-01
  7.569  0.278E-01  0.278E-01
  7.579  0.279E-01  0.279E-01
  7.589  0.281E-01  0.281E-01
  7.599  0.283E-01  0.283E-01
  7.609  0.284E-01  0.284E-01
  7.619  0.286E-01  0.286E-01
  7.629  0.287E-01  0.287E-01
  7.639  0.287E-01  0.287E-01
  7.649  0.287E-01  0.287E-01
  7.659  0.287E-01  0.287E-01
  7.669  0.287E-01  0.287E-01
  7.679  0.286E-01  0.286E-01
  7.689  0.284E-01  0.284E-01
  7.699  0.283E-01  0.283E-01
  7.709  0.281E-01  0.281E-01
  7.719  0.279E-01  0.279E-01
  7.729  0.276E-01  0.276E-01
  7.739  0.274E-01  0.274E-01
  7.749  0.271E-01  0.271E-01
  7.759  0.268E-01  0.268E-01
  7.769  0.266E-01  0.266E-01
  7.779  0.263E-01  0.263E-01
  7.789  0.260E-01  0.260E-01
  7.799  0.257E-01  0.257E-01
  7.809  0.253E-01  0.253E-01
  7.819  0.250E-01  0.250E-01
  7.829  0.247E-01  0.247E-01
  7.839  0.243E-01  0.243E-01
  7.849  0.239E-01  0.239E-01
  7.859  0.235E-01  0.235E-01
  7.869  0.231E-01  0.231E-01
  7.879  0.227E-01  0.227E-01
  7.889  0.223E-01  0.223E-01
  7.899  0.218E-01  0.218E-01
  7.909  0.214E-01  0.214E-01
  7.919  0.209E-01  0.209E-01
  7.929  0.205E-01  0.205E-01
  7.939  0.200E-01  0.200E-01
  7.949  0.196E-01  0.196E-01
  7.959  0.191E-01  0.191E-01
  7.969  0.187E-01  0.187E-01
  7.979  0.183E-01  0.183E-01
  7.989  0.179E-01  0.179E-01
  7.999  0.175E-01  0.175E-01
  8.009  0.172E-01  0.172E-01
  8.019  0.169E-01  0.169E-01
  8.029  0.166E-01  0.166E-01
  8.039  0.163E-01  0.163E-01
  8.049  0.160E-01  0.160E-01
  8.059  0.158E-01  0.158E-01
  8.069  0.155E-01  0.155E-01
  8.079  0.153E-01  0.153E-01
  8.089  0.151E-01  0.151E-01
  8.099  0.148E-01  0.148E-01
  8.109  0.146E-01  0.146E-01
  8.119  0.144E-01  0.144E-01
  8.129  0.142E-01  0.142E-01
  8.139  0.140E-01  0.140E-01
  8.149  0.137E-01  0.137E-01
  8.159  0.135E-01  0.135E-01
  8.169  0.133E-01  0.133E-01
  8.179  0.130E-01  0.130E-01
  8.189  0.128E-01  0.128E-01
  8.199  0.125E-01  0.125E-01
  8.209  0.123E-01  0.123E-01
  8.219  0.120E-01  0.120E-01
  8.229  0.117E-01  0.117E-01
  8.239  0.115E-01  0.115E-01
  8.249  0.112E-01  0.112E-01
  8.259  0.109E-01  0.109E-01
  8.269  0.107E-01  0.107E-01
  8.279  0.104E-01  0.104E-01
  8.289  0.101E-01  0.101E-01
  8.299  0.989E-02  0.989E-02
  8.309  0.966E-02  0.966E-02
  8.319  0.944E-02  0.944E-02
  8.329  0.923E-02  0.923E-02
  8.339  0.904E-02  0.904E-02
  8.349  0.886E-02  0.886E-02
  8.359  0.870E-02  0.870E-02
  8.369  0.854E-02  0.854E-02
  8.379  0.840E-02  0.840E-02
  8.389  0.827E-02  0.827E-02
  8.399  0.814E-02  0.814E-02
  8.409  0.802E-02  0.802E-02
  8.419  0.789E-02  0.789E-02
  8.429  0.777E-02  0.777E-02
  8.439  0.765E-02  0.765E-02
  8.449  0.752E-02  0.752E-02
  8.459  0.738E-02  0.738E-02
  8.469  0.724E-02  0.724E-02
  8.479  0.709E-02  0.709E-02
  8.489  0.693E-02  0.693E-02
  8.499  0.677E-02  0.677E-02
  8.509  0.659E-02  0.659E-02
  8.519  0.642E-02  0.642E-02
  8.529  0.624E-02  0.624E-02
  8.539  0.605E-02  0.605E-02
  8.549  0.586E-02  0.586E-02
  8.559  0.567E-02  0.567E-02
  8.569  0.548E-02  0.548E-02
  8.579  0.529E-02  0.529E-02
  8.589  0.509E-02  0.509E-02
  8.599  0.490E-02  0.490E-02
  8.609  0.472E-02  0.472E-02
  8.619  0.453E-02  0.453E-02
  8.629  0.435E-02  0.435E-02
  8.639  0.417E-02  0.417E-02
  8.649  0.400E-02  0.400E-02
  8.659  0.383E-02  0.383E-02
  8.669  0.367E-02  0.367E-02
  8.679  0.351E-02  0.351E-02
  8.689  0.336E-02  0.336E-02
  8.699  0.322E-02  0.322E-02
  8.709  0.309E-02  0.309E-02
  8.719  0.296E-02  0.296E-02
  8.729  0.284E-02  0.284E-02
  8.739  0.273E-02  0.273E-02
  8.749  0.263E-02  0.263E-02
  8.759  0.254E-02  0.254E-02
  8.769  0.245E-02  0.245E-02
  8.779  0.237E-02  0.237E-02
  8.789  0.230E-02  0.230E-02
  8.799  0.224E-02  0.224E-02
  8.809  0.218E-02  0.218E-02
  8.819  0.212E-02  0.212E-02
  8.829  0.207E-02  0.207E-02
  8.839  0.202E-02  0.202E-02
  8.849  0.197E-02  0.197E-02
  8.859  0.193E-02  0.193E-02
  8.869  0.188E-02  0.188E-02
  8.879  0.183E-02  0.183E-02
  8.889  0.178E-02  0.178E-02
  8.899  0.172E-02  0.172E-02
  8.909  0.167E-02  0.167E-02
  8.919  0.161E-02  0.161E-02
  8.929  0.155E-02  0.155E-02
  8.939  0.149E-02  0.149E-02
  8.949  0.143E-02  0.143E-02
  8.959  0.137E-02  0.137E-02
  8.969  0.131E-02  0.131E-02
  8.979  0.124E-02  0.124E-02
  8.989  0.118E-02  0.118E-02
  8.999  0.113E-02  0.113E-02
  9.009  0.107E-02  0.107E-02
  9.019  0.101E-02  0.101E-02
  9.029  0.958E-03  0.958E-03
  9.039  0.905E-03  0.905E-03
  9.049  0.854E-03  0.854E-03
  9.059  0.804E-03  0.804E-03
  9.069  0.755E-03  0.755E-03
  9.079  0.707E-03  0.707E-03
  9.089  0.661E-03  0.661E-03
  9.099  0.615E-03  0.615E-03
  9.109  0.570E-03  0.570E-03
  9.119  0.526E-03  0.526E-03
  9.129  0.483E-03  0.483E-03
  9.139  0.442E-03  0.442E-03
  9.149  0.401E-03  0.401E-03
  9.159  0.363E-03  0.363E-03
  9.169  0.326E-03  0.326E-03
  9.179  0.291E-03  0.291E-03
  9.189  0.258E-03  0.258E-03
  9.199  0.227E-03  0.227E-03
  9.209  0.199E-03  0.199E-03
  9.219  0.173E-03  0.173E-03
  9.229  0.150E-03  0.150E-03
  9.239  0.129E-03  0.129E-03
  9.249  0.110E-03  0.110E-03
  9.259  0.934E-04  0.934E-04
  9.269  0.789E-04  0.789E-04
  9.279  0.662E-04  0.662E-04
  9.289  0.553E-04  0.553E-04
  9.299  0.459E-04  0.459E-04
  9.309  0.379E-04  0.379E-04
  9.319  0.311E-04  0.311E-04
  9.329  0.255E-04  0.255E-04
  9.339  0.207E-04  0.207E-04
  9.349  0.168E-04  0.168E-04
  9.359  0.135E-04  0.135E-04
  9.369  0.108E-04  0.108E-04
  9.379  0.862E-05  0.862E-05
  9.389  0.683E-05  0.683E-05
  9.399  0.539E-05  0.539E-05
  9.409  0.423E-05  0.423E-05
  9.419  0.330E-05  0.330E-05
  9.429  0.255E-05  0.255E-05
  9.439  0.197E-05  0.197E-05
  9.449  0.151E-05  0.151E-05
  9.459  0.114E-05  0.114E-05
  9.469  0.864E-06  0.864E-06
  9.479  0.648E-06  0.648E-06
  9.489  0.482E-06  0.482E-06
  9.499  0.356E-06  0.356E-06
  9.509  0.261E-06  0.261E-06
  9.519  0.190E-06  0.190E-06
  9.529  0.137E-06  0.137E-06
  9.539  0.978E-07  0.978E-07
  9.549  0.693E-07  0.693E-07
  9.559  0.487E-07  0.487E-07
  9.569  0.340E-07  0.340E-07
  9.579  0.235E-07  0.235E-07
  9.589  0.161E-07  0.161E-07
  9.599  0.109E-07  0.109E-07
  9.609  0.734E-08  0.734E-08
  9.619  0.489E-08  0.489E-08
  9.629  0.323E-08  0.323E-08
  9.639  0.211E-08  0.211E-08
  9.649  0.137E-08  0.137E-08
  9.659  0.879E-09  0.879E-09
  9.669  0.559E-09  0.559E-09
  9.679  0.352E-09  0.352E-09
  9.689  0.220E-09  0.220E-09
  9.699  0.136E-09  0.136E-09
  9.709  0.831E-10  0.831E-10
  9.719  0.504E-10  0.504E-10
  9.729  0.303E-10  0.303E-10
  9.739  0.180E-10  0.180E-10
  9.749  0.106E-10  0.106E-10
  9.759  0.617E-11  0.617E-11
  9.769  0.356E-11  0.356E-11
  9.779  0.204E-11  0.204E-11
  9.789  0.115E-11  0.115E-11
  9.799  0.646E-12  0.646E-12
  9.809  0.358E-12  0.358E-12
  9.819  0.197E-12  0.197E-12
  9.829  0.107E-12  0.107E-12
  9.839  0.576E-13  0.576E-13
  9.849  0.307E-13  0.307E-13
  9.859  0.162E-13  0.162E-13
  9.869  0.845E-14  0.845E-14
  9.879  0.437E-14  0.437E-14
  9.889  0.219E-14  0.219E-14
  9.899  0.110E-14  0.110E-14
  9.909  0.554E-15  0.554E-15
  9.919  0.270E-15  0.270E-15
  9.929  0.133E-15  0.133E-15
  9.939  0.509E-16  0.509E-16
  9.949  0.248E-16  0.248E-16
  9.959  0.108E-16  0.108E-16
  9.969  0.387E-17  0.387E-17
  9.979  0.184E-17  0.184E-17
  9.989  0.428E-22  0.428E-22
  9.999  0.705E-25  0.705E-25
 10.009  0.213E-25  0.213E-25
 10.019  0.000E+00  0.000E+00
 10.029  0.000E+00  0.000E+00
 10.039  0.000E+00  0.000E+00
 10.049  0.000E+00  0.000E+00
 10.059  0.000E+00  0.000E+00
 10.069  0.000E+00  0.000E+00
 10.079  0.000E+00  0.000E+00
 10.089  0.000E+00  0.000E+00
 10.099  0.000E+00  0.000E+00
 10.109  0.000E+00  0.000E+00
 10.119  0.000E+00  0.000E+00
 10.129  0.000E+00  0.000E+00
 10.139  0.000E+00  0.000E+00
 10.149  0.000E+00  0.000E+00
 10.159  0.000E+00  0.000E+00
 10.169  0.000E+00  0.000E+00
 10.179  0.000E+00  0.000E+00
 10.189  0.000E+00  0.000E+00
 10.199  0.000E+00  0.000E+00
 10.209  0.000E+00  0.000E+00
 10.219  0.000E+00  0.000E+00
 10.229  0.000E+00  0.000E+00
 10.239  0.000E+00  0.000E+00
 10.249  0.000E+00  0.000E+00
 10.259  0.000E+00  0.000E+00
 10.269  0.000E+00  0.000E+00
 10.279  0.000E+00  0.000E+00
 10.289  0.000E+00  0.000E+00
 10.299  0.000E+00  0.000E+00
 10.309  0.000E+00  0.000E+00
 10.319  0.000E+00  0.000E+00
 10.329  0.000E+00  0.000E+00
 10.339  0.000E+00  0.000E+00
 10.349  0.000E+00  0.000E+00
 10.359  0.000E+00  0.000E+00
 10.369  0.276E-14  0.276E-14
 10.379  0.579E-14  0.579E-14
 10.389  0.120E-13  0.120E-13
 10.399  0.246E-13  0.246E-13
 10.409  0.499E-13  0.499E-13
 10.419  0.100E-12  0.100E-12
 10.429  0.199E-12  0.199E-12
 10.439  0.390E-12  0.390E-12
 10.449  0.757E-12  0.757E-12
 10.459  0.145E-11  0.145E-11
 10.469  0.277E-11  0.277E-11
 10.479  0.520E-11  0.520E-11
 10.489  0.967E-11  0.967E-11
 10.499  0.178E-10  0.178E-10
 10.509  0.324E-10  0.324E-10
 10.519  0.583E-10  0.583E-10
 10.529  0.104E-09  0.104E-09
 10.539  0.183E-09  0.183E-09
 10.549  0.319E-09  0.319E-09
 10.559  0.551E-09  0.551E-09
 10.569  0.939E-09  0.939E-09
 10.579  0.159E-08  0.159E-08
 10.589  0.265E-08  0.265E-08
 10.599  0.437E-08  0.437E-08
 10.609  0.714E-08  0.714E-08
 10.619  0.115E-07  0.115E-07
 10.629  0.185E-07  0.185E-07
 10.639  0.292E-07  0.292E-07
 10.649  0.457E-07  0.457E-07
 10.659  0.708E-07  0.708E-07
 10.669  0.108E-06  0.108E-06
 10.679  0.164E-06  0.164E-06
 10.689  0.246E-06  0.246E-06
 10.699  0.365E-06  0.365E-06
 10.709  0.535E-06  0.535E-06
 10.719  0.776E-06  0.776E-06
 10.729  0.111E-05  0.111E-05
 10.739  0.158E-05  0.158E-05
 10.749  0.222E-05  0.222E-05
 10.759  0.309E-05  0.309E-05
 10.769  0.424E-05  0.424E-05
 10.779  0.577E-05  0.577E-05
 10.789  0.777E-05  0.777E-05
 10.799  0.103E-04  0.103E-04
 10.809  0.136E-04  0.136E-04
 10.819  0.177E-04  0.177E-04
 10.829  0.229E-04  0.229E-04
 10.839  0.291E-04  0.291E-04
 10.849  0.368E-04  0.368E-04
 10.859  0.459E-04  0.459E-04
 10.869  0.567E-04  0.567E-04
 10.879  0.693E-04  0.693E-04
 10.889  0.838E-04  0.838E-04
 10.899  0.100E-03  0.100E-03
 10.909  0.119E-03  0.119E-03
 10.919  0.139E-03  0.139E-03
 10.929  0.162E-03  0.162E-03
 10.939  0.186E-03  0.186E-03
 10.949  0.212E-03  0.212E-03
 10.959  0.240E-03  0.240E-03
 10.969  0.269E-03  0.269E-03
 10.979  0.298E-03  0.298E-03
 10.989  0.329E-03  0.329E-03
 10.999  0.361E-03  0.361E-03
 11.009  0.393E-03  0.393E-03
 11.019  0.426E-03  0.426E-03
 11.029  0.460E-03  0.460E-03
 11.039  0.496E-03  0.496E-03
 11.049  0.534E-03  0.534E-03
 11.059  0.575E-03  0.575E-03
 11.069  0.620E-03  0.620E-03
 11.079  0.671E-03  0.671E-03
 11.089  0.729E-03  0.729E-03
 11.099  0.794E-03  0.794E-03
 11.109  0.868E-03  0.868E-03
 11.119  0.953E-03  0.953E-03
 11.129  0.105E-02  0.105E-02
 11.139  0.116E-02  0.116E-02
 11.149  0.128E-02  0.128E-02
 11.159  0.141E-02  0.141E-02
 11.169  0.155E-02  0.155E-02
 11.179  0.170E-02  0.170E-02
 11.189  0.186E-02  0.186E-02
 11.199  0.203E-02  0.203E-02
 11.209  0.220E-02  0.220E-02
 11.219  0.238E-02  0.238E-02
 11.229  0.255E-02  0.255E-02
 11.239  0.272E-02  0.272E-02
 11.249  0.289E-02  0.289E-02
 11.259  0.305E-02  0.305E-02
 11.269  0.320E-02  0.320E-02
 11.279  0.335E-02  0.335E-02
 11.289  0.348E-02  0.348E-02
 11.299  0.361E-02  0.361E-02
 11.309  0.373E-02  0.373E-02
 11.319  0.384E-02  0.384E-02
 11.329  0.394E-02  0.394E-02
 11.339  0.404E-02  0.404E-02
 11.349  0.413E-02  0.413E-02
 11.359  0.422E-02  0.422E-02
 11.369  0.430E-02  0.430E-02
 11.379  0.437E-02  0.437E-02
 11.389  0.444E-02  0.444E-02
 11.399  0.449E-02  0.449E-02
 11.409  0.454E-02  0.454E-02
 11.419  0.457E-02  0.457E-02
 11.429  0.458E-02  0.458E-02
 11.439  0.458E-02  0.458E-02
 11.449  0.456E-02  0.456E-02
 11.459  0.453E-02  0.453E-02
 11.469  0.448E-02  0.448E-02
 11.479  0.442E-02  0.442E-02
 11.489  0.434E-02  0.434E-02
 11.499  0.426E-02  0.426E-02
 11.509  0.418E-02  0.418E-02
 11.519  0.410E-02  0.410E-02
 11.529  0.403E-02  0.403E-02
 11.539  0.397E-02  0.397E-02
 11.549  0.393E-02  0.393E-02
 11.559  0.391E-02  0.391E-02
 11.569  0.392E-02  0.392E-02
 11.579  0.396E-02  0.396E-02
 11.589  0.403E-02  0.403E-02
 11.599  0.414E-02  0.414E-02
 11.609  0.428E-02  0.428E-02
 11.619  0.446E-02  0.446E-02
 11.629  0.468E-02  0.468E-02
 11.639  0.494E-02  0.494E-02
 11.649  0.522E-02  0.522E-02
 11.659  0.554E-02  0.554E-02
 11.669  0.588E-02  0.588E-02
 11.679  0.624E-02  0.624E-02
 11.689  0.662E-02  0.662E-02
 11.699  0.700E-02  0.700E-02
 11.709  0.740E-02  0.740E-02
 11.719  0.778E-02  0.778E-02
 11.729  0.816E-02  0.816E-02
 11.739  0.852E-02  0.852E-02
 11.749  0.886E-02  0.886E-02
 11.759  0.916E-02  0.916E-02
 11.769  0.942E-02  0.942E-02
 11.779  0.964E-02  0.964E-02
 11.789  0.980E-02  0.980E-02
 11.799  0.991E-02  0.991E-02
 11.809  0.997E-02  0.997E-02
 11.819  0.996E-02  0.996E-02
 11.829  0.989E-02  0.989E-02
 11.839  0.977E-02  0.977E-02
 11.849  0.960E-02  0.960E-02
 11.859  0.937E-02  0.937E-02
 11.869  0.911E-02  0.911E-02
 11.879  0.881E-02  0.881E-02
 11.889  0.849E-02  0.849E-02
 11.899  0.815E-02  0.815E-02
 11.909  0.781E-02  0.781E-02
 11.919  0.748E-02  0.748E-02
 11.929  0.716E-02  0.716E-02
 11.939  0.687E-02  0.687E-02
 11.949  0.663E-02  0.663E-02
 11.959  0.642E-02  0.642E-02
 11.969  0.627E-02  0.627E-02
 11.979  0.619E-02  0.619E-02
 11.989  0.617E-02  0.617E-02
 11.999  0.621E-02  0.621E-02
 12.009  0.633E-02  0.633E-02
 12.019  0.652E-02  0.652E-02
 12.029  0.678E-02  0.678E-02
 12.039  0.710E-02  0.710E-02
 12.049  0.748E-02  0.748E-02
 12.059  0.791E-02  0.791E-02
 12.069  0.838E-02  0.838E-02
 12.079  0.889E-02  0.889E-02
 12.089  0.943E-02  0.943E-02
 12.099  0.998E-02  0.998E-02
 12.109  0.105E-01  0.105E-01
 12.119  0.111E-01  0.111E-01
 12.129  0.116E-01  0.116E-01
 12.139  0.121E-01  0.121E-01
 12.149  0.126E-01  0.126E-01
 12.159  0.130E-01  0.130E-01
 12.169  0.134E-01  0.134E-01
 12.179  0.137E-01  0.137E-01
 12.189  0.139E-01  0.139E-01
 12.199  0.141E-01  0.141E-01
 12.209  0.142E-01  0.142E-01
 12.219  0.143E-01  0.143E-01
 12.229  0.142E-01  0.142E-01
 12.239  0.141E-01  0.141E-01
 12.249  0.140E-01  0.140E-01
 12.259  0.138E-01  0.138E-01
 12.269  0.136E-01  0.136E-01
 12.279  0.134E-01  0.134E-01
 12.289  0.131E-01  0.131E-01
 12.299  0.128E-01  0.128E-01
 12.309  0.126E-01  0.126E-01
 12.319  0.123E-01  0.123E-01
 12.329  0.121E-01  0.121E-01
 12.339  0.120E-01  0.120E-01
 12.349  0.118E-01  0.118E-01
 12.359  0.117E-01  0.117E-01
 12.369  0.117E-01  0.117E-01
 12.379  0.117E-01  0.117E-01
 12.389  0.117E-01  0.117E-01
 12.399  0.118E-01  0.118E-01
 12.409  0.119E-01  0.119E-01
 12.419  0.121E-01  0.121E-01
 12.429  0.122E-01  0.122E-01
 12.439  0.124E-01  0.124E-01
 12.449  0.126E-01  0.126E-01
 12.459  0.128E-01  0.128E-01
 12.469  0.130E-01  0.130E-01
 12.479  0.132E-01  0.132E-01
 12.489  0.134E-01  0.134E-01
 12.499  0.136E-01  0.136E-01
 12.509  0.139E-01  0.139E-01
 12.519  0.141E-01  0.141E-01
 12.529  0.143E-01  0.143E-01
 12.539  0.145E-01  0.145E-01
 12.549  0.147E-01  0.147E-01
 12.559  0.150E-01  0.150E-01
 12.569  0.152E-01  0.152E-01
 12.579  0.155E-01  0.155E-01
 12.589  0.158E-01  0.158E-01
 12.599  0.160E-01  0.160E-01
 12.609  0.163E-01  0.163E-01
 12.619  0.166E-01  0.166E-01
 12.629  0.169E-01  0.169E-01
 12.639  0.172E-01  0.172E-01
 12.649  0.174E-01  0.174E-01
 12.659  0.177E-01  0.177E-01
 12.669  0.179E-01  0.179E-01
 12.679  0.181E-01  0.181E-01
 12.689  0.183E-01  0.183E-01
 12.699  0.185E-01  0.185E-01
 12.709  0.187E-01  0.187E-01
 12.719  0.188E-01  0.188E-01
 12.729  0.190E-01  0.190E-01
 12.739  0.191E-01  0.191E-01
 12.749  0.192E-01  0.192E-01
 12.759  0.193E-01  0.193E-01
 12.769  0.195E-01  0.195E-01
 12.779  0.196E-01  0.196E-01
 12.789  0.197E-01  0.197E-01
 12.799  0.198E-01  0.198E-01
 12.809  0.200E-01  0.200E-01
 12.819  0.201E-01  0.201E-01
 12.829  0.202E-01  0.202E-01
 12.839  0.202E-01  0.202E-01
 12.849  0.203E-01  0.203E-01
 12.859  0.203E-01  0.203E-01
 12.869  0.203E-01  0.203E-01
 12.879  0.202E-01  0.202E-01
 12.889  0.201E-01  0.201E-01
 12.899  0.200E-01  0.200E-01
 12.909  0.198E-01  0.198E-01
 12.919  0.197E-01  0.197E-01
 12.929  0.195E-01  0.195E-01
 12.939  0.193E-01  0.193E-01
 12.949  0.191E-01  0.191E-01
 12.959  0.189E-01  0.189E-01
 12.969  0.188E-01  0.188E-01
 12.979  0.187E-01  0.187E-01
 12.989  0.187E-01  0.187E-01
 12.999  0.188E-01  0.188E-01
 13.009  0.190E-01  0.190E-01
 13.019  0.193E-01  0.193E-01
 13.029  0.197E-01  0.197E-01
 13.039  0.202E-01  0.202E-01
 13.049  0.208E-01  0.208E-01
 13.059  0.215E-01  0.215E-01
 13.069  0.222E-01  0.222E-01
 13.079  0.231E-01  0.231E-01
 13.089  0.240E-01  0.240E-01
 13.099  0.249E-01  0.249E-01
 13.109  0.258E-01  0.258E-01
 13.119  0.267E-01  0.267E-01
 13.129  0.276E-01  0.276E-01
 13.139  0.285E-01  0.285E-01
 13.149  0.293E-01  0.293E-01
 13.159  0.300E-01  0.300E-01
 13.169  0.307E-01  0.307E-01
 13.179  0.312E-01  0.312E-01
 13.189  0.317E-01  0.317E-01
 13.199  0.322E-01  0.322E-01
 13.209  0.325E-01  0.325E-01
 13.219  0.328E-01  0.328E-01
 13.229  0.331E-01  0.331E-01
 13.239  0.333E-01  0.333E-01
 13.249  0.335E-01  0.335E-01
 13.259  0.337E-01  0.337E-01
 13.269  0.340E-01  0.340E-01
 13.279  0.342E-01  0.342E-01
 13.289  0.346E-01  0.346E-01
 13.299  0.350E-01  0.350E-01
 13.309  0.355E-01  0.355E-01
 13.319  0.362E-01  0.362E-01
 13.329  0.370E-01  0.370E-01
 13.339  0.379E-01  0.379E-01
 13.349  0.390E-01  0.390E-01
 13.359  0.402E-01  0.402E-01
 13.369  0.417E-01  0.417E-01
 13.379  0.433E-01  0.433E-01
 13.389  0.451E-01  0.451E-01
 13.399  0.470E-01  0.470E-01
 13.409  0.492E-01  0.492E-01
 13.419  0.516E-01  0.516E-01
 13.429  0.542E-01  0.542E-01
 13.439  0.569E-01  0.569E-01
 13.449  0.599E-01  0.599E-01
 13.459  0.630E-01  0.630E-01
 13.469  0.662E-01  0.662E-01
 13.479  0.697E-01  0.697E-01
 13.489  0.732E-01  0.732E-01
 13.499  0.769E-01  0.769E-01
 13.509  0.807E-01  0.807E-01
 13.519  0.845E-01  0.845E-01
 13.529  0.884E-01  0.884E-01
 13.539  0.922E-01  0.922E-01
 13.549  0.960E-01  0.960E-01
 13.559  0.997E-01  0.997E-01
 13.569  0.103E+00  0.103E+00
 13.579  0.107E+00  0.107E+00
 13.589  0.110E+00  0.110E+00
 13.599  0.113E+00  0.113E+00
 13.609  0.115E+00  0.115E+00
 13.619  0.117E+00  0.117E+00
 13.629  0.119E+00  0.119E+00
 13.639  0.121E+00  0.121E+00
 13.649  0.122E+00  0.122E+00
 13.659  0.123E+00  0.123E+00
 13.669  0.123E+00  0.123E+00
 13.679  0.123E+00  0.123E+00
 13.689  0.123E+00  0.123E+00
 13.699  0.123E+00  0.123E+00
 13.709  0.122E+00  0.122E+00
 13.719  0.122E+00  0.122E+00
 13.729  0.121E+00  0.121E+00
 13.739  0.120E+00  0.120E+00
 13.749  0.120E+00  0.120E+00
 13.759  0.119E+00  0.119E+00
 13.769  0.119E+00  0.119E+00
 13.779  0.119E+00  0.119E+00
 13.789  0.119E+00  0.119E+00
 13.799  0.119E+00  0.119E+00
 13.809  0.120E+00  0.120E+00
 13.819  0.121E+00  0.121E+00
 13.829  0.122E+00  0.122E+00
 13.839  0.124E+00  0.124E+00
 13.849  0.126E+00  0.126E+00
 13.859  0.128E+00  0.128E+00
 13.869  0.130E+00  0.130E+00
 13.879  0.132E+00  0.132E+00
 13.889  0.135E+00  0.135E+00
 13.899  0.137E+00  0.137E+00
 13.909  0.139E+00  0.139E+00
 13.919  0.141E+00  0.141E+00
 13.929  0.143E+00  0.143E+00
 13.939  0.145E+00  0.145E+00
 13.949  0.146E+00  0.146E+00
 13.959  0.146E+00  0.146E+00
 13.969  0.147E+00  0.147E+00
 13.979  0.147E+00  0.147E+00
 13.989  0.146E+00  0.146E+00
 13.999  0.145E+00  0.145E+00
 14.009  0.144E+00  0.144E+00
 14.019  0.142E+00  0.142E+00
 14.029  0.140E+00  0.140E+00
 14.039  0.138E+00  0.138E+00
 14.049  0.136E+00  0.136E+00
 14.059  0.134E+00  0.134E+00
 14.069  0.132E+00  0.132E+00
 14.079  0.130E+00  0.130E+00
 14.089  0.128E+00  0.128E+00
 14.099  0.126E+00  0.126E+00
 14.109  0.125E+00  0.125E+00
 14.119  0.124E+00  0.124E+00
 14.129  0.124E+00  0.124E+00
 14.139  0.124E+00  0.124E+00
 14.149  0.124E+00  0.124E+00
 14.159  0.125E+00  0.125E+00
 14.169  0.127E+00  0.127E+00
 14.179  0.129E+00  0.129E+00
 14.189  0.131E+00  0.131E+00
 14.199  0.133E+00  0.133E+00
 14.209  0.136E+00  0.136E+00
 14.219  0.139E+00  0.139E+00
 14.229  0.142E+00  0.142E+00
 14.239  0.145E+00  0.145E+00
 14.249  0.148E+00  0.148E+00
 14.259  0.151E+00  0.151E+00
 14.269  0.153E+00  0.153E+00
 14.279  0.156E+00  0.156E+00
 14.289  0.158E+00  0.158E+00
 14.299  0.159E+00  0.159E+00
 14.309  0.161E+00  0.161E+00
 14.319  0.162E+00  0.162E+00
 14.329  0.162E+00  0.162E+00
 14.339  0.163E+00  0.163E+00
 14.349  0.163E+00  0.163E+00
 14.359  0.163E+00  0.163E+00
 14.369  0.162E+00  0.162E+00
 14.379  0.162E+00  0.162E+00
 14.389  0.162E+00  0.162E+00
 14.399  0.161E+00  0.161E+00
 14.409  0.160E+00  0.160E+00
 14.419  0.160E+00  0.160E+00
 14.429  0.160E+00  0.160E+00
 14.439  0.159E+00  0.159E+00
 14.449  0.159E+00  0.159E+00
 14.459  0.159E+00  0.159E+00
 14.469  0.159E+00  0.159E+00
 14.479  0.159E+00  0.159E+00
 14.489  0.159E+00  0.159E+00
 14.499  0.160E+00  0.160E+00
 14.509  0.160E+00  0.160E+00
 14.519  0.160E+00  0.160E+00
 14.529  0.160E+00  0.160E+00
 14.539  0.160E+00  0.160E+00
 14.549  0.161E+00  0.161E+00
 14.559  0.161E+00  0.161E+00
 14.569  0.161E+00  0.161E+00
 14.579  0.161E+00  0.161E+00
 14.589  0.161E+00  0.161E+00
 14.599  0.161E+00  0.161E+00
 14.609  0.162E+00  0.162E+00
 14.619  0.162E+00  0.162E+00
 14.629  0.163E+00  0.163E+00
 14.639  0.164E+00  0.164E+00
 14.649  0.165E+00  0.165E+00
 14.659  0.166E+00  0.166E+00
 14.669  0.167E+00  0.167E+00
 14.679  0.169E+00  0.169E+00
 14.689  0.171E+00  0.171E+00
 14.699  0.173E+00  0.173E+00
 14.709  0.175E+00  0.175E+00
 14.719  0.177E+00  0.177E+00
 14.729  0.179E+00  0.179E+00
 14.739  0.181E+00  0.181E+00
 14.749  0.183E+00  0.183E+00
 14.759  0.186E+00  0.186E+00
 14.769  0.187E+00  0.187E+00
 14.779  0.189E+00  0.189E+00
 14.789  0.191E+00  0.191E+00
 14.799  0.192E+00  0.192E+00
 14.809  0.193E+00  0.193E+00
 14.819  0.194E+00  0.194E+00
 14.829  0.195E+00  0.195E+00
 14.839  0.196E+00  0.196E+00
 14.849  0.197E+00  0.197E+00
 14.859  0.197E+00  0.197E+00
 14.869  0.198E+00  0.198E+00
 14.879  0.198E+00  0.198E+00
 14.889  0.199E+00  0.199E+00
 14.899  0.199E+00  0.199E+00
 14.909  0.199E+00  0.199E+00
 14.919  0.199E+00  0.199E+00
 14.929  0.199E+00  0.199E+00
 14.939  0.199E+00  0.199E+00
 14.949  0.198E+00  0.198E+00
 14.959  0.198E+00  0.198E+00
 14.969  0.197E+00  0.197E+00
 14.979  0.197E+00  0.197E+00
 14.989  0.196E+00  0.196E+00
 14.999  0.196E+00  0.196E+00
 15.009  0.195E+00  0.195E+00
 15.019  0.194E+00  0.194E+00
 15.029  0.194E+00  0.194E+00
 15.039  0.194E+00  0.194E+00
 15.049  0.194E+00  0.194E+00
 15.059  0.194E+00  0.194E+00
 15.069  0.195E+00  0.195E+00
 15.079  0.196E+00  0.196E+00
 15.089  0.197E+00  0.197E+00
 15.099  0.198E+00  0.198E+00
 15.109  0.199E+00  0.199E+00
 15.119  0.200E+00  0.200E+00
 15.129  0.202E+00  0.202E+00
 15.139  0.203E+00  0.203E+00
 15.149  0.204E+00  0.204E+00
 15.159  0.205E+00  0.205E+00
 15.169  0.205E+00  0.205E+00
 15.179  0.205E+00  0.205E+00
 15.189  0.204E+00  0.204E+00
 15.199  0.203E+00  0.203E+00
 15.209  0.202E+00  0.202E+00
 15.219  0.200E+00  0.200E+00
 15.229  0.197E+00  0.197E+00
 15.239  0.194E+00  0.194E+00
 15.249  0.190E+00  0.190E+00
 15.259  0.186E+00  0.186E+00
 15.269  0.182E+00  0.182E+00
 15.279  0.177E+00  0.177E+00
 15.289  0.173E+00  0.173E+00
 15.299  0.168E+00  0.168E+00
 15.309  0.164E+00  0.164E+00
 15.319  0.160E+00  0.160E+00
 15.329  0.156E+00  0.156E+00
 15.339  0.152E+00  0.152E+00
 15.349  0.149E+00  0.149E+00
 15.359  0.146E+00  0.146E+00
 15.369  0.144E+00  0.144E+00
 15.379  0.143E+00  0.143E+00
 15.389  0.142E+00  0.142E+00
 15.399  0.141E+00  0.141E+00
 15.409  0.141E+00  0.141E+00
 15.419  0.142E+00  0.142E+00
 15.429  0.143E+00  0.143E+00
 15.439  0.144E+00  0.144E+00
 15.449  0.146E+00  0.146E+00
 15.459  0.148E+00  0.148E+00
 15.469  0.150E+00  0.150E+00
 15.479  0.152E+00  0.152E+00
 15.489  0.154E+00  0.154E+00
 15.499  0.156E+00  0.156E+00
 15.509  0.157E+00  0.157E+00
 15.519  0.159E+00  0.159E+00
 15.529  0.160E+00  0.160E+00
 15.539  0.161E+00  0.161E+00
 15.549  0.161E+00  0.161E+00
 15.559  0.161E+00  0.161E+00
 15.569  0.161E+00  0.161E+00
 15.579  0.160E+00  0.160E+00
 15.589  0.159E+00  0.159E+00
 15.599  0.158E+00  0.158E+00
 15.609  0.156E+00  0.156E+00
 15.619  0.155E+00  0.155E+00
 15.629  0.152E+00  0.152E+00
 15.639  0.150E+00  0.150E+00
 15.649  0.148E+00  0.148E+00
 15.659  0.145E+00  0.145E+00
 15.669  0.143E+00  0.143E+00
 15.679  0.140E+00  0.140E+00
 15.689  0.137E+00  0.137E+00
 15.699  0.135E+00  0.135E+00
 15.709  0.132E+00  0.132E+00
 15.719  0.130E+00  0.130E+00
 15.729  0.128E+00  0.128E+00
 15.739  0.125E+00  0.125E+00
 15.749  0.123E+00  0.123E+00
 15.759  0.122E+00  0.122E+00
 15.769  0.120E+00  0.120E+00
 15.779  0.118E+00  0.118E+00
 15.789  0.117E+00  0.117E+00
 15.799  0.116E+00  0.116E+00
 15.809  0.116E+00  0.116E+00
 15.819  0.115E+00  0.115E+00
 15.829  0.115E+00  0.115E+00
 15.839  0.115E+00  0.115E+00
 15.849  0.115E+00  0.115E+00
 15.859  0.116E+00  0.116E+00
 15.869  0.116E+00  0.116E+00
 15.879  0.117E+00  0.117E+00
 15.889  0.118E+00  0.118E+00
 15.899  0.119E+00  0.119E+00
 15.909  0.119E+00  0.119E+00
 15.919  0.120E+00  0.120E+00
 15.929  0.121E+00  0.121E+00
 15.939  0.122E+00  0.122E+00
 15.949  0.123E+00  0.123E+00
 15.959  0.124E+00  0.124E+00
 15.969  0.124E+00  0.124E+00
 15.979  0.125E+00  0.125E+00
 15.989  0.126E+00  0.126E+00
 15.999  0.127E+00  0.127E+00
 16.009  0.128E+00  0.128E+00
 16.019  0.129E+00  0.129E+00
 16.029  0.130E+00  0.130E+00
 16.039  0.131E+00  0.131E+00
 16.049  0.132E+00  0.132E+00
 16.059  0.133E+00  0.133E+00
 16.069  0.134E+00  0.134E+00
 16.079  0.135E+00  0.135E+00
 16.089  0.137E+00  0.137E+00
 16.099  0.138E+00  0.138E+00
 16.109  0.139E+00  0.139E+00
 16.119  0.141E+00  0.141E+00
 16.129  0.142E+00  0.142E+00
 16.139  0.143E+00  0.143E+00
 16.149  0.145E+00  0.145E+00
 16.159  0.146E+00  0.146E+00
 16.169  0.148E+00  0.148E+00
 16.179  0.149E+00  0.149E+00
 16.189  0.151E+00  0.151E+00
 16.199  0.152E+00  0.152E+00
 16.209  0.154E+00  0.154E+00
 16.219  0.156E+00  0.156E+00
 16.229  0.158E+00  0.158E+00
 16.239  0.161E+00  0.161E+00
 16.249  0.163E+00  0.163E+00
 16.259  0.166E+00  0.166E+00
 16.269  0.169E+00  0.169E+00
 16.279  0.172E+00  0.172E+00
 16.289  0.175E+00  0.175E+00
 16.299  0.178E+00  0.178E+00
 16.309  0.182E+00  0.182E+00
 16.319  0.185E+00  0.185E+00
 16.329  0.189E+00  0.189E+00
 16.339  0.193E+00  0.193E+00
 16.349  0.197E+00  0.197E+00
 16.359  0.202E+00  0.202E+00
 16.369  0.206E+00  0.206E+00
 16.379  0.210E+00  0.210E+00
 16.389  0.214E+00  0.214E+00
 16.399  0.219E+00  0.219E+00
 16.409  0.223E+00  0.223E+00
 16.419  0.227E+00  0.227E+00
 16.429  0.231E+00  0.231E+00
 16.439  0.235E+00  0.235E+00
 16.449  0.239E+00  0.239E+00
 16.459  0.243E+00  0.243E+00
 16.469  0.246E+00  0.246E+00
 16.479  0.250E+00  0.250E+00
 16.489  0.253E+00  0.253E+00
 16.499  0.256E+00  0.256E+00
 16.509  0.259E+00  0.259E+00
 16.519  0.262E+00  0.262E+00
 16.529  0.265E+00  0.265E+00
 16.539  0.268E+00  0.268E+00
 16.549  0.271E+00  0.271E+00
 16.559  0.274E+00  0.274E+00
 16.569  0.277E+00  0.277E+00
 16.579  0.280E+00  0.280E+00
 16.589  0.283E+00  0.283E+00
 16.599  0.285E+00  0.285E+00
 16.609  0.288E+00  0.288E+00
 16.619  0.291E+00  0.291E+00
 16.629  0.295E+00  0.295E+00
 16.639  0.298E+00  0.298E+00
 16.649  0.301E+00  0.301E+00
 16.659  0.304E+00  0.304E+00
 16.669  0.307E+00  0.307E+00
 16.679  0.310E+00  0.310E+00
 16.689  0.314E+00  0.314E+00
 16.699  0.317E+00  0.317E+00
 16.709  0.320E+00  0.320E+00
 16.719  0.323E+00  0.323E+00
 16.729  0.327E+00  0.327E+00
 16.739  0.330E+00  0.330E+00
 16.749  0.334E+00  0.334E+00
 16.759  0.337E+00  0.337E+00
 16.769  0.341E+00  0.341E+00
 16.779  0.345E+00  0.345E+00
 16.789  0.349E+00  0.349E+00
 16.799  0.352E+00  0.352E+00
 16.809  0.356E+00  0.356E+00
 16.819  0.360E+00  0.360E+00
 16.829  0.365E+00  0.365E+00
 16.839  0.369E+00  0.369E+00
 16.849  0.373E+00  0.373E+00
 16.859  0.378E+00  0.378E+00
 16.869  0.383E+00  0.383E+00
 16.879  0.387E+00  0.387E+00
 16.889  0.393E+00  0.393E+00
 16.899  0.398E+00  0.398E+00
 16.909  0.404E+00  0.404E+00
 16.919  0.410E+00  0.410E+00
 16.929  0.416E+00  0.416E+00
 16.939  0.423E+00  0.423E+00
 16.949  0.431E+00  0.431E+00
 16.959  0.438E+00  0.438E+00
 16.969  0.446E+00  0.446E+00
 16.979  0.455E+00  0.455E+00
 16.989  0.463E+00  0.463E+00
 16.999  0.472E+00  0.472E+00
 17.009  0.481E+00  0.481E+00
 17.019  0.490E+00  0.490E+00
 17.029  0.499E+00  0.499E+00
 17.039  0.508E+00  0.508E+00
 17.049  0.517E+00  0.517E+00
 17.059  0.525E+00  0.525E+00
 17.069  0.533E+00  0.533E+00
 17.079  0.541E+00  0.541E+00
 17.089  0.548E+00  0.548E+00
 17.099  0.555E+00  0.555E+00
 17.109  0.562E+00  0.562E+00
 17.119  0.568E+00  0.568E+00
 17.129  0.573E+00  0.573E+00
 17.139  0.579E+00  0.579E+00
 17.149  0.584E+00  0.584E+00
 17.159  0.588E+00  0.588E+00
 17.169  0.592E+00  0.592E+00
 17.179  0.596E+00  0.596E+00
 17.189  0.599E+00  0.599E+00
 17.199  0.601E+00  0.601E+00
 17.209  0.603E+00  0.603E+00
 17.219  0.604E+00  0.604E+00
 17.229  0.605E+00  0.605E+00
 17.239  0.604E+00  0.604E+00
 17.249  0.603E+00  0.603E+00
 17.259  0.600E+00  0.600E+00
 17.269  0.597E+00  0.597E+00
 17.279  0.592E+00  0.592E+00
 17.289  0.585E+00  0.585E+00
 17.299  0.578E+00  0.578E+00
 17.309  0.569E+00  0.569E+00
 17.319  0.559E+00  0.559E+00
 17.329  0.547E+00  0.547E+00
 17.339  0.534E+00  0.534E+00
 17.349  0.520E+00  0.520E+00
 17.359  0.505E+00  0.505E+00
 17.369  0.489E+00  0.489E+00
 17.379  0.473E+00  0.473E+00
 17.389  0.456E+00  0.456E+00
 17.399  0.438E+00  0.438E+00
 17.409  0.421E+00  0.421E+00
 17.419  0.403E+00  0.403E+00
 17.429  0.385E+00  0.385E+00
 17.439  0.368E+00  0.368E+00
 17.449  0.352E+00  0.352E+00
 17.459  0.335E+00  0.335E+00
 17.469  0.320E+00  0.320E+00
 17.479  0.305E+00  0.305E+00
 17.489  0.290E+00  0.290E+00
 17.499  0.277E+00  0.277E+00
 17.509  0.264E+00  0.264E+00
 17.519  0.252E+00  0.252E+00
 17.529  0.240E+00  0.240E+00
 17.539  0.229E+00  0.229E+00
 17.549  0.218E+00  0.218E+00
 17.559  0.208E+00  0.208E+00
 17.569  0.198E+00  0.198E+00
 17.579  0.189E+00  0.189E+00
 17.589  0.180E+00  0.180E+00
 17.599  0.171E+00  0.171E+00
 17.609  0.162E+00  0.162E+00
 17.619  0.154E+00  0.154E+00
 17.629  0.146E+00  0.146E+00
 17.639  0.138E+00  0.138E+00
 17.649  0.131E+00  0.131E+00
 17.659  0.123E+00  0.123E+00
 17.669  0.116E+00  0.116E+00
 17.679  0.109E+00  0.109E+00
 17.689  0.103E+00  0.103E+00
 17.699  0.965E-01  0.965E-01
 17.709  0.906E-01  0.906E-01
 17.719  0.850E-01  0.850E-01
 17.729  0.797E-01  0.797E-01
 17.739  0.748E-01  0.748E-01
 17.749  0.702E-01  0.702E-01
 17.759  0.660E-01  0.660E-01
 17.769  0.621E-01  0.621E-01
 17.779  0.586E-01  0.586E-01
 17.789  0.555E-01  0.555E-01
 17.799  0.528E-01  0.528E-01
 17.809  0.504E-01  0.504E-01
 17.819  0.484E-01  0.484E-01
 17.829  0.468E-01  0.468E-01
 17.839  0.456E-01  0.456E-01
 17.849  0.448E-01  0.448E-01
 17.859  0.443E-01  0.443E-01
 17.869  0.442E-01  0.442E-01
 17.879  0.445E-01  0.445E-01
 17.889  0.451E-01  0.451E-01
 17.899  0.461E-01  0.461E-01
 17.909  0.475E-01  0.475E-01
 17.919  0.492E-01  0.492E-01
 17.929  0.513E-01  0.513E-01
 17.939  0.536E-01  0.536E-01
 17.949  0.562E-01  0.562E-01
 17.959  0.591E-01  0.591E-01
 17.969  0.621E-01  0.621E-01
 17.979  0.654E-01  0.654E-01
 17.989  0.688E-01  0.688E-01
 17.999  0.723E-01  0.723E-01
 18.009  0.758E-01  0.758E-01
 18.019  0.793E-01  0.793E-01
 18.029  0.828E-01  0.828E-01
 18.039  0.861E-01  0.861E-01
 18.049  0.893E-01  0.893E-01
 18.059  0.923E-01  0.923E-01
 18.069  0.951E-01  0.951E-01
 18.079  0.975E-01  0.975E-01
 18.089  0.997E-01  0.997E-01
 18.099  0.102E+00  0.102E+00
 18.109  0.103E+00  0.103E+00
 18.119  0.104E+00  0.104E+00
 18.129  0.105E+00  0.105E+00
 18.139  0.105E+00  0.105E+00
 18.149  0.106E+00  0.106E+00
 18.159  0.105E+00  0.105E+00
 18.169  0.105E+00  0.105E+00
 18.179  0.104E+00  0.104E+00
 18.189  0.103E+00  0.103E+00
 18.199  0.102E+00  0.102E+00
 18.209  0.101E+00  0.101E+00
 18.219  0.991E-01  0.991E-01
 18.229  0.975E-01  0.975E-01
 18.239  0.957E-01  0.957E-01
 18.249  0.940E-01  0.940E-01
 18.259  0.922E-01  0.922E-01
 18.269  0.905E-01  0.905E-01
 18.279  0.888E-01  0.888E-01
 18.289  0.872E-01  0.872E-01
 18.299  0.857E-01  0.857E-01
 18.309  0.842E-01  0.842E-01
 18.319  0.830E-01  0.830E-01
 18.329  0.818E-01  0.818E-01
 18.339  0.809E-01  0.809E-01
 18.349  0.800E-01  0.800E-01
 18.359  0.794E-01  0.794E-01
 18.369  0.789E-01  0.789E-01
 18.379  0.786E-01  0.786E-01
 18.389  0.785E-01  0.785E-01
 18.399  0.785E-01  0.785E-01
 18.409  0.786E-01  0.786E-01
 18.419  0.789E-01  0.789E-01
 18.429  0.793E-01  0.793E-01
 18.439  0.797E-01  0.797E-01
 18.449  0.802E-01  0.802E-01
 18.459  0.808E-01  0.808E-01
 18.469  0.814E-01  0.814E-01
 18.479  0.820E-01  0.820E-01
 18.489  0.827E-01  0.827E-01
 18.499  0.834E-01  0.834E-01
 18.509  0.841E-01  0.841E-01
 18.519  0.848E-01  0.848E-01
 18.529  0.856E-01  0.856E-01
 18.539  0.864E-01  0.864E-01
 18.549  0.872E-01  0.872E-01
 18.559  0.881E-01  0.881E-01
 18.569  0.890E-01  0.890E-01
 18.579  0.900E-01  0.900E-01
 18.589  0.910E-01  0.910E-01
 18.599  0.921E-01  0.921E-01
 18.609  0.933E-01  0.933E-01
 18.619  0.945E-01  0.945E-01
 18.629  0.957E-01  0.957E-01
 18.639  0.970E-01  0.970E-01
 18.649  0.983E-01  0.983E-01
 18.659  0.995E-01  0.995E-01
 18.669  0.101E+00  0.101E+00
 18.679  0.102E+00  0.102E+00
 18.689  0.103E+00  0.103E+00
 18.699  0.104E+00  0.104E+00
 18.709  0.105E+00  0.105E+00
 18.719  0.106E+00  0.106E+00
 18.729  0.107E+00  0.107E+00
 18.739  0.108E+00  0.108E+00
 18.749  0.108E+00  0.108E+00
 18.759  0.109E+00  0.109E+00
 18.769  0.109E+00  0.109E+00
 18.779  0.110E+00  0.110E+00
 18.789  0.110E+00  0.110E+00
 18.799  0.110E+00  0.110E+00
 18.809  0.110E+00  0.110E+00
 18.819  0.111E+00  0.111E+00
 18.829  0.111E+00  0.111E+00
 18.839  0.110E+00  0.110E+00
 18.849  0.110E+00  0.110E+00
 18.859  0.110E+00  0.110E+00
 18.869  0.110E+00  0.110E+00
 18.879  0.110E+00  0.110E+00
 18.889  0.110E+00  0.110E+00
 18.899  0.110E+00  0.110E+00
 18.909  0.110E+00  0.110E+00
 18.919  0.110E+00  0.110E+00
 18.929  0.110E+00  0.110E+00
 18.939  0.110E+00  0.110E+00
 18.949  0.110E+00  0.110E+00
 18.959  0.110E+00  0.110E+00
 18.969  0.111E+00  0.111E+00
 18.979  0.111E+00  0.111E+00
 18.989  0.112E+00  0.112E+00
 18.999  0.112E+00  0.112E+00
 19.009  0.112E+00  0.112E+00
 19.019  0.113E+00  0.113E+00
 19.029  0.113E+00  0.113E+00
 19.039  0.113E+00  0.113E+00
 19.049  0.113E+00  0.113E+00
 19.059  0.114E+00  0.114E+00
 19.069  0.114E+00  0.114E+00
 19.079  0.113E+00  0.113E+00
 19.089  0.113E+00  0.113E+00
 19.099  0.113E+00  0.113E+00
 19.109  0.112E+00  0.112E+00
 19.119  0.111E+00  0.111E+00
 19.129  0.111E+00  0.111E+00
 19.139  0.110E+00  0.110E+00
 19.149  0.109E+00  0.109E+00
 19.159  0.108E+00  0.108E+00
 19.169  0.107E+00  0.107E+00
 19.179  0.106E+00  0.106E+00
 19.189  0.105E+00  0.105E+00
 19.199  0.103E+00  0.103E+00
 19.209  0.102E+00  0.102E+00
 19.219  0.101E+00  0.101E+00
 19.229  0.996E-01  0.996E-01
 19.239  0.983E-01  0.983E-01
 19.249  0.970E-01  0.970E-01
 19.259  0.957E-01  0.957E-01
 19.269  0.944E-01  0.944E-01
 19.279  0.931E-01  0.931E-01
 19.289  0.918E-01  0.918E-01
 19.299  0.905E-01  0.905E-01
 19.309  0.892E-01  0.892E-01
 19.319  0.880E-01  0.880E-01
 19.329  0.867E-01  0.867E-01
 19.339  0.855E-01  0.855E-01
 19.349  0.842E-01  0.842E-01
 19.359  0.829E-01  0.829E-01
 19.369  0.816E-01  0.816E-01
 19.379  0.803E-01  0.803E-01
 19.389  0.790E-01  0.790E-01
 19.399  0.776E-01  0.776E-01
 19.409  0.761E-01  0.761E-01
 19.419  0.746E-01  0.746E-01
 19.429  0.731E-01  0.731E-01
 19.439  0.714E-01  0.714E-01
 19.449  0.697E-01  0.697E-01
 19.459  0.680E-01  0.680E-01
 19.469  0.662E-01  0.662E-01
 19.479  0.643E-01  0.643E-01
 19.489  0.625E-01  0.625E-01
 19.499  0.606E-01  0.606E-01
 19.509  0.587E-01  0.587E-01
 19.519  0.569E-01  0.569E-01
 19.529  0.551E-01  0.551E-01
 19.539  0.533E-01  0.533E-01
 19.549  0.516E-01  0.516E-01
 19.559  0.500E-01  0.500E-01
 19.569  0.485E-01  0.485E-01
 19.579  0.471E-01  0.471E-01
 19.589  0.457E-01  0.457E-01
 19.599  0.445E-01  0.445E-01
 19.609  0.433E-01  0.433E-01
 19.619  0.423E-01  0.423E-01
 19.629  0.413E-01  0.413E-01
 19.639  0.404E-01  0.404E-01
 19.649  0.395E-01  0.395E-01
 19.659  0.387E-01  0.387E-01
 19.669  0.380E-01  0.380E-01
 19.679  0.373E-01  0.373E-01
 19.689  0.365E-01  0.365E-01
 19.699  0.358E-01  0.358E-01
 19.709  0.351E-01  0.351E-01
 19.719  0.344E-01  0.344E-01
 19.729  0.337E-01  0.337E-01
 19.739  0.330E-01  0.330E-01
 19.749  0.323E-01  0.323E-01
 19.759  0.316E-01  0.316E-01
 19.769  0.309E-01  0.309E-01
 19.779  0.302E-01  0.302E-01
 19.789  0.294E-01  0.294E-01
 19.799  0.287E-01  0.287E-01
 19.809  0.280E-01  0.280E-01
 19.819  0.273E-01  0.273E-01
 19.829  0.266E-01  0.266E-01
 19.839  0.259E-01  0.259E-01
 19.849  0.252E-01  0.252E-01
 19.859  0.246E-01  0.246E-01
 19.869  0.240E-01  0.240E-01
 19.879  0.234E-01  0.234E-01
 19.889  0.228E-01  0.228E-01
 19.899  0.222E-01  0.222E-01
 19.909  0.217E-01  0.217E-01
 19.919  0.212E-01  0.212E-01
 19.929  0.208E-01  0.208E-01
 19.939  0.204E-01  0.204E-01
 19.949  0.200E-01  0.200E-01
 19.959  0.197E-01  0.197E-01
 19.969  0.194E-01  0.194E-01
 19.979  0.192E-01  0.192E-01
 19.989  0.190E-01  0.190E-01
 19.999  0.189E-01  0.189E-01
 20.009  0.188E-01  0.188E-01
 20.019  0.187E-01  0.187E-01
 20.029  0.187E-01  0.187E-01
 20.039  0.187E-01  0.187E-01
 20.049  0.187E-01  0.187E-01
 20.059  0.188E-01  0.188E-01
 20.069  0.189E-01  0.189E-01
 20.079  0.190E-01  0.190E-01
 20.089  0.191E-01  0.191E-01
 20.099  0.192E-01  0.192E-01
 20.109  0.193E-01  0.193E-01
 20.119  0.194E-01  0.194E-01
 20.129  0.195E-01  0.195E-01
 20.139  0.196E-01  0.196E-01
 20.149  0.197E-01  0.197E-01
 20.159  0.197E-01  0.197E-01
 20.169  0.197E-01  0.197E-01
 20.179  0.197E-01  0.197E-01
 20.189  0.196E-01  0.196E-01
 20.199  0.195E-01  0.195E-01
 20.209  0.194E-01  0.194E-01
 20.219  0.193E-01  0.193E-01
 20.229  0.191E-01  0.191E-01
 20.239  0.189E-01  0.189E-01
 20.249  0.186E-01  0.186E-01
 20.259  0.184E-01  0.184E-01
 20.269  0.181E-01  0.181E-01
 20.279  0.179E-01  0.179E-01
 20.289  0.176E-01  0.176E-01
 20.299  0.173E-01  0.173E-01
 20.309  0.171E-01  0.171E-01
 20.319  0.168E-01  0.168E-01
 20.329  0.166E-01  0.166E-01
 20.339  0.163E-01  0.163E-01
 20.349  0.161E-01  0.161E-01
 20.359  0.159E-01  0.159E-01
 20.369  0.157E-01  0.157E-01
 20.379  0.155E-01  0.155E-01
 20.389  0.154E-01  0.154E-01
 20.399  0.152E-01  0.152E-01
 20.409  0.151E-01  0.151E-01
 20.419  0.149E-01  0.149E-01
 20.429  0.148E-01  0.148E-01
 20.439  0.146E-01  0.146E-01
 20.449  0.145E-01  0.145E-01
 20.459  0.143E-01  0.143E-01
 20.469  0.141E-01  0.141E-01
 20.479  0.140E-01  0.140E-01
 20.489  0.138E-01  0.138E-01
 20.499  0.136E-01  0.136E-01
 20.509  0.135E-01  0.135E-01
 20.519  0.133E-01  0.133E-01
 20.529  0.131E-01  0.131E-01
 20.539  0.129E-01  0.129E-01
 20.549  0.128E-01  0.128E-01
 20.559  0.126E-01  0.126E-01
 20.569  0.124E-01  0.124E-01
 20.579  0.123E-01  0.123E-01
 20.589  0.121E-01  0.121E-01
 20.599  0.120E-01  0.120E-01
 20.609  0.119E-01  0.119E-01
 20.619  0.118E-01  0.118E-01
 20.629  0.117E-01  0.117E-01
 20.639  0.117E-01  0.117E-01
 20.649  0.116E-01  0.116E-01
 20.659  0.116E-01  0.116E-01
 20.669  0.116E-01  0.116E-01
 20.679  0.117E-01  0.117E-01
 20.689  0.117E-01  0.117E-01
 20.699  0.118E-01  0.118E-01
 20.709  0.119E-01  0.119E-01
 20.719  0.120E-01  0.120E-01
 20.729  0.122E-01  0.122E-01
 20.739  0.123E-01  0.123E-01
 20.749  0.125E-01  0.125E-01
 20.759  0.127E-01  0.127E-01
 20.769  0.128E-01  0.128E-01
 20.779  0.130E-01  0.130E-01
 20.789  0.132E-01  0.132E-01
 20.799  0.133E-01  0.133E-01
 20.809  0.135E-01  0.135E-01
 20.819  0.136E-01  0.136E-01
 20.829  0.137E-01  0.137E-01
 20.839  0.138E-01  0.138E-01
 20.849  0.138E-01  0.138E-01
 20.859  0.138E-01  0.138E-01
 20.869  0.138E-01  0.138E-01
 20.879  0.138E-01  0.138E-01
 20.889  0.138E-01  0.138E-01
 20.899  0.137E-01  0.137E-01
 20.909  0.136E-01  0.136E-01
 20.919  0.135E-01  0.135E-01
 20.929  0.134E-01  0.134E-01
 20.939  0.133E-01  0.133E-01
 20.949  0.131E-01  0.131E-01
 20.959  0.130E-01  0.130E-01
 20.969  0.129E-01  0.129E-01
 20.979  0.127E-01  0.127E-01
 20.989  0.126E-01  0.126E-01
 20.999  0.125E-01  0.125E-01
 21.009  0.124E-01  0.124E-01
 21.019  0.123E-01  0.123E-01
 21.029  0.122E-01  0.122E-01
 21.039  0.122E-01  0.122E-01
 21.049  0.121E-01  0.121E-01
 21.059  0.121E-01  0.121E-01
 21.069  0.121E-01  0.121E-01
 21.079  0.121E-01  0.121E-01
 21.089  0.122E-01  0.122E-01
 21.099  0.122E-01  0.122E-01
 21.109  0.123E-01  0.123E-01
 21.119  0.123E-01  0.123E-01
 21.129  0.124E-01  0.124E-01
 21.139  0.125E-01  0.125E-01
 21.149  0.127E-01  0.127E-01
 21.159  0.128E-01  0.128E-01
 21.169  0.129E-01  0.129E-01
 21.179  0.131E-01  0.131E-01
 21.189  0.133E-01  0.133E-01
 21.199  0.134E-01  0.134E-01
 21.209  0.136E-01  0.136E-01
 21.219  0.137E-01  0.137E-01
 21.229  0.139E-01  0.139E-01
 21.239  0.140E-01  0.140E-01
 21.249  0.141E-01  0.141E-01
 21.259  0.142E-01  0.142E-01
 21.269  0.143E-01  0.143E-01
 21.279  0.143E-01  0.143E-01
 21.289  0.143E-01  0.143E-01
 21.299  0.143E-01  0.143E-01
 21.309  0.143E-01  0.143E-01
 21.319  0.142E-01  0.142E-01
 21.329  0.141E-01  0.141E-01
 21.339  0.140E-01  0.140E-01
 21.349  0.139E-01  0.139E-01
 21.359  0.138E-01  0.138E-01
 21.369  0.136E-01  0.136E-01
 21.379  0.135E-01  0.135E-01
 21.389  0.133E-01  0.133E-01
 21.399  0.132E-01  0.132E-01
 21.409  0.131E-01  0.131E-01
 21.419  0.130E-01  0.130E-01
 21.429  0.128E-01  0.128E-01
 21.439  0.128E-01  0.128E-01
 21.449  0.127E-01  0.127E-01
 21.459  0.126E-01  0.126E-01
 21.469  0.125E-01  0.125E-01
 21.479  0.125E-01  0.125E-01
 21.489  0.124E-01  0.124E-01
 21.499  0.124E-01  0.124E-01
 21.509  0.123E-01  0.123E-01
 21.519  0.123E-01  0.123E-01
 21.529  0.122E-01  0.122E-01
 21.539  0.121E-01  0.121E-01
 21.549  0.120E-01  0.120E-01
 21.559  0.119E-01  0.119E-01
 21.569  0.118E-01  0.118E-01
 21.579  0.116E-01  0.116E-01
 21.589  0.114E-01  0.114E-01
 21.599  0.112E-01  0.112E-01
 21.609  0.110E-01  0.110E-01
 21.619  0.108E-01  0.108E-01
 21.629  0.106E-01  0.106E-01
 21.639  0.104E-01  0.104E-01
 21.649  0.101E-01  0.101E-01
 21.659  0.990E-02  0.990E-02
 21.669  0.966E-02  0.966E-02
 21.679  0.942E-02  0.942E-02
 21.689  0.918E-02  0.918E-02
 21.699  0.895E-02  0.895E-02
 21.709  0.873E-02  0.873E-02
 21.719  0.851E-02  0.851E-02
 21.729  0.830E-02  0.830E-02
 21.739  0.810E-02  0.810E-02
 21.749  0.791E-02  0.791E-02
 21.759  0.773E-02  0.773E-02
 21.769  0.756E-02  0.756E-02
 21.779  0.740E-02  0.740E-02
 21.789  0.726E-02  0.726E-02
 21.799  0.713E-02  0.713E-02
 21.809  0.702E-02  0.702E-02
 21.819  0.692E-02  0.692E-02
 21.829  0.684E-02  0.684E-02
 21.839  0.678E-02  0.678E-02
 21.849  0.674E-02  0.674E-02
 21.859  0.671E-02  0.671E-02
 21.869  0.670E-02  0.670E-02
 21.879  0.671E-02  0.671E-02
 21.889  0.673E-02  0.673E-02
 21.899  0.676E-02  0.676E-02
 21.909  0.679E-02  0.679E-02
 21.919  0.684E-02  0.684E-02
 21.929  0.689E-02  0.689E-02
 21.939  0.694E-02  0.694E-02
 21.949  0.698E-02  0.698E-02
 21.959  0.703E-02  0.703E-02
 21.969  0.707E-02  0.707E-02
 21.979  0.711E-02  0.711E-02
 21.989  0.715E-02  0.715E-02
 21.999  0.718E-02  0.718E-02
 22.009  0.721E-02  0.721E-02
 22.019  0.724E-02  0.724E-02
 22.029  0.726E-02  0.726E-02
 22.039  0.729E-02  0.729E-02
 22.049  0.733E-02  0.733E-02
 22.059  0.737E-02  0.737E-02
 22.069  0.742E-02  0.742E-02
 22.079  0.748E-02  0.748E-02
 22.089  0.755E-02  0.755E-02
 22.099  0.764E-02  0.764E-02
 22.109  0.773E-02  0.773E-02
 22.119  0.785E-02  0.785E-02
 22.129  0.797E-02  0.797E-02
 22.139  0.811E-02  0.811E-02
 22.149  0.826E-02  0.826E-02
 22.159  0.843E-02  0.843E-02
 22.169  0.860E-02  0.860E-02
 22.179  0.877E-02  0.877E-02
 22.189  0.895E-02  0.895E-02
 22.199  0.913E-02  0.913E-02
 22.209  0.931E-02  0.931E-02
 22.219  0.948E-02  0.948E-02
 22.229  0.965E-02  0.965E-02
 22.239  0.980E-02  0.980E-02
 22.249  0.995E-02  0.995E-02
 22.259  0.101E-01  0.101E-01
 22.269  0.102E-01  0.102E-01
 22.279  0.103E-01  0.103E-01
 22.289  0.104E-01  0.104E-01
 22.299  0.105E-01  0.105E-01
 22.309  0.105E-01  0.105E-01
 22.319  0.106E-01  0.106E-01
 22.329  0.106E-01  0.106E-01
 22.339  0.106E-01  0.106E-01
 22.349  0.106E-01  0.106E-01
 22.359  0.106E-01  0.106E-01
 22.369  0.106E-01  0.106E-01
 22.379  0.106E-01  0.106E-01
 22.389  0.105E-01  0.105E-01
 22.399  0.105E-01  0.105E-01
 22.409  0.104E-01  0.104E-01
 22.419  0.103E-01  0.103E-01
 22.429  0.102E-01  0.102E-01
 22.439  0.101E-01  0.101E-01
 22.449  0.999E-02  0.999E-02
 22.459  0.984E-02  0.984E-02
 22.469  0.967E-02  0.967E-02
 22.479  0.949E-02  0.949E-02
 22.489  0.930E-02  0.930E-02
 22.499  0.909E-02  0.909E-02
 22.509  0.887E-02  0.887E-02
 22.519  0.864E-02  0.864E-02
 22.529  0.840E-02  0.840E-02
 22.539  0.816E-02  0.816E-02
 22.549  0.792E-02  0.792E-02
 22.559  0.768E-02  0.768E-02
 22.569  0.744E-02  0.744E-02
 22.579  0.720E-02  0.720E-02
 22.589  0.696E-02  0.696E-02
 22.599  0.673E-02  0.673E-02
 22.609  0.651E-02  0.651E-02
 22.619  0.629E-02  0.629E-02
 22.629  0.608E-02  0.608E-02
 22.639  0.587E-02  0.587E-02
 22.649  0.566E-02  0.566E-02
 22.659  0.546E-02  0.546E-02
 22.669  0.526E-02  0.526E-02
 22.679  0.506E-02  0.506E-02
 22.689  0.486E-02  0.486E-02
 22.699  0.467E-02  0.467E-02
 22.709  0.447E-02  0.447E-02
 22.719  0.428E-02  0.428E-02
 22.729  0.409E-02  0.409E-02
 22.739  0.390E-02  0.390E-02
 22.749  0.371E-02  0.371E-02
 22.759  0.353E-02  0.353E-02
 22.769  0.335E-02  0.335E-02
 22.779  0.318E-02  0.318E-02
 22.789  0.301E-02  0.301E-02
 22.799  0.284E-02  0.284E-02
 22.809  0.269E-02  0.269E-02
 22.819  0.254E-02  0.254E-02
 22.829  0.239E-02  0.239E-02
 22.839  0.226E-02  0.226E-02
 22.849  0.212E-02  0.212E-02
 22.859  0.200E-02  0.200E-02
 22.869  0.187E-02  0.187E-02
 22.879  0.175E-02  0.175E-02
 22.889  0.164E-02  0.164E-02
 22.899  0.153E-02  0.153E-02
 22.909  0.142E-02  0.142E-02
 22.919  0.132E-02  0.132E-02
 22.929  0.122E-02  0.122E-02
 22.939  0.112E-02  0.112E-02
 22.949  0.102E-02  0.102E-02
 22.959  0.929E-03  0.929E-03
 22.969  0.840E-03  0.840E-03
 22.979  0.755E-03  0.755E-03
 22.989  0.674E-03  0.674E-03
 22.999  0.598E-03  0.598E-03
 23.009  0.527E-03  0.527E-03
 23.019  0.460E-03  0.460E-03
 23.029  0.399E-03  0.399E-03
 23.039  0.343E-03  0.343E-03
 23.049  0.293E-03  0.293E-03
 23.059  0.248E-03  0.248E-03
 23.069  0.208E-03  0.208E-03
 23.079  0.173E-03  0.173E-03
 23.089  0.142E-03  0.142E-03
 23.099  0.116E-03  0.116E-03
 23.109  0.937E-04  0.937E-04
 23.119  0.750E-04  0.750E-04
 23.129  0.595E-04  0.595E-04
 23.139  0.467E-04  0.467E-04
 23.149  0.363E-04  0.363E-04
 23.159  0.280E-04  0.280E-04
 23.169  0.213E-04  0.213E-04
 23.179  0.161E-04  0.161E-04
 23.189  0.120E-04  0.120E-04
 23.199  0.889E-05  0.889E-05
 23.209  0.651E-05  0.651E-05
 23.219  0.471E-05  0.471E-05
 23.229  0.338E-05  0.338E-05
 23.239  0.240E-05  0.240E-05
 23.249  0.168E-05  0.168E-05
 23.259  0.117E-05  0.117E-05
 23.269  0.805E-06  0.805E-06
 23.279  0.548E-06  0.548E-06
 23.289  0.369E-06  0.369E-06
 23.299  0.246E-06  0.246E-06
 23.309  0.162E-06  0.162E-06
 23.319  0.106E-06  0.106E-06
 23.329  0.684E-07  0.684E-07
 23.339  0.437E-07  0.437E-07
 23.349  0.276E-07  0.276E-07
 23.359  0.173E-07  0.173E-07
 23.369  0.107E-07  0.107E-07
 23.379  0.657E-08  0.657E-08
 23.389  0.398E-08  0.398E-08
 23.399  0.239E-08  0.239E-08
 23.409  0.142E-08  0.142E-08
 23.419  0.837E-09  0.837E-09
 23.429  0.488E-09  0.488E-09
 23.439  0.281E-09  0.281E-09
 23.449  0.161E-09  0.161E-09
 23.459  0.912E-10  0.912E-10
 23.469  0.512E-10  0.512E-10
 23.479  0.285E-10  0.285E-10
 23.489  0.158E-10  0.158E-10
 23.499  0.865E-11  0.865E-11
 23.509  0.471E-11  0.471E-11
 23.519  0.256E-11  0.256E-11
 23.529  0.138E-11  0.138E-11
 23.539  0.741E-12  0.741E-12
 23.549  0.398E-12  0.398E-12
