# E (eV)  dos(E)    pdos(E)
 -6.851  0.133E-05  0.132E-05
 -6.841  0.212E-05  0.211E-05
 -6.831  0.336E-05  0.335E-05
 -6.821  0.526E-05  0.524E-05
 -6.811  0.816E-05  0.813E-05
 -6.801  0.125E-04  0.125E-04
 -6.791  0.190E-04  0.190E-04
 -6.781  0.287E-04  0.286E-04
 -6.771  0.427E-04  0.426E-04
 -6.761  0.631E-04  0.629E-04
 -6.751  0.922E-04  0.919E-04
 -6.741  0.133E-03  0.133E-03
 -6.731  0.191E-03  0.191E-03
 -6.721  0.271E-03  0.271E-03
 -6.711  0.382E-03  0.380E-03
 -6.701  0.531E-03  0.530E-03
 -6.691  0.733E-03  0.730E-03
 -6.681  0.100E-02  0.998E-03
 -6.671  0.135E-02  0.135E-02
 -6.661  0.182E-02  0.181E-02
 -6.651  0.241E-02  0.240E-02
 -6.641  0.317E-02  0.316E-02
 -6.631  0.414E-02  0.412E-02
 -6.621  0.535E-02  0.533E-02
 -6.611  0.685E-02  0.683E-02
 -6.601  0.869E-02  0.866E-02
 -6.591  0.109E-01  0.109E-01
 -6.581  0.136E-01  0.136E-01
 -6.571  0.169E-01  0.168E-01
 -6.561  0.207E-01  0.206E-01
 -6.551  0.252E-01  0.251E-01
 -6.541  0.304E-01  0.303E-01
 -6.531  0.363E-01  0.362E-01
 -6.521  0.431E-01  0.430E-01
 -6.511  0.508E-01  0.507E-01
 -6.501  0.594E-01  0.592E-01
 -6.491  0.690E-01  0.687E-01
 -6.481  0.795E-01  0.792E-01
 -6.471  0.909E-01  0.906E-01
 -6.461  0.103E+00  0.103E+00
 -6.451  0.117E+00  0.116E+00
 -6.441  0.131E+00  0.131E+00
 -6.431  0.146E+00  0.146E+00
 -6.421  0.162E+00  0.161E+00
 -6.411  0.178E+00  0.178E+00
 -6.401  0.196E+00  0.195E+00
 -6.391  0.213E+00  0.213E+00
 -6.381  0.232E+00  0.231E+00
 -6.371  0.250E+00  0.249E+00
 -6.361  0.269E+00  0.268E+00
 -6.351  0.288E+00  0.288E+00
 -6.341  0.308E+00  0.307E+00
 -6.331  0.328E+00  0.327E+00
 -6.321  0.347E+00  0.346E+00
 -6.311  0.367E+00  0.366E+00
 -6.301  0.387E+00  0.386E+00
 -6.291  0.407E+00  0.406E+00
 -6.281  0.427E+00  0.426E+00
 -6.271  0.447E+00  0.446E+00
 -6.261  0.467E+00  0.466E+00
 -6.251  0.487E+00  0.486E+00
 -6.241  0.508E+00  0.506E+00
 -6.231  0.528E+00  0.527E+00
 -6.221  0.549E+00  0.547E+00
 -6.211  0.570E+00  0.568E+00
 -6.201  0.591E+00  0.589E+00
 -6.191  0.612E+00  0.611E+00
 -6.181  0.634E+00  0.632E+00
 -6.171  0.656E+00  0.654E+00
 -6.161  0.679E+00  0.677E+00
 -6.151  0.702E+00  0.700E+00
 -6.141  0.726E+00  0.724E+00
 -6.131  0.750E+00  0.748E+00
 -6.121  0.775E+00  0.773E+00
 -6.111  0.801E+00  0.799E+00
 -6.101  0.828E+00  0.825E+00
 -6.091  0.855E+00  0.852E+00
 -6.081  0.883E+00  0.881E+00
 -6.071  0.913E+00  0.910E+00
 -6.061  0.943E+00  0.940E+00
 -6.051  0.975E+00  0.972E+00
 -6.041  0.101E+01  0.100E+01
 -6.031  0.104E+01  0.104E+01
 -6.021  0.108E+01  0.107E+01
 -6.011  0.112E+01  0.111E+01
 -6.001  0.116E+01  0.115E+01
 -5.991  0.120E+01  0.119E+01
 -5.981  0.124E+01  0.124E+01
 -5.971  0.129E+01  0.128E+01
 -5.961  0.133E+01  0.133E+01
 -5.951  0.139E+01  0.138E+01
 -5.941  0.144E+01  0.144E+01
 -5.931  0.150E+01  0.150E+01
 -5.921  0.156E+01  0.156E+01
 -5.911  0.163E+01  0.162E+01
 -5.901  0.170E+01  0.170E+01
 -5.891  0.178E+01  0.177E+01
 -5.881  0.186E+01  0.186E+01
 -5.871  0.196E+01  0.195E+01
 -5.861  0.206E+01  0.205E+01
 -5.851  0.216E+01  0.216E+01
 -5.841  0.228E+01  0.228E+01
 -5.831  0.241E+01  0.240E+01
 -5.821  0.255E+01  0.255E+01
 -5.811  0.271E+01  0.270E+01
 -5.801  0.288E+01  0.287E+01
 -5.791  0.306E+01  0.306E+01
 -5.781  0.327E+01  0.326E+01
 -5.771  0.349E+01  0.348E+01
 -5.761  0.373E+01  0.372E+01
 -5.751  0.399E+01  0.398E+01
 -5.741  0.427E+01  0.426E+01
 -5.731  0.458E+01  0.457E+01
 -5.721  0.491E+01  0.489E+01
 -5.711  0.525E+01  0.524E+01
 -5.701  0.562E+01  0.561E+01
 -5.691  0.601E+01  0.600E+01
 -5.681  0.642E+01  0.640E+01
 -5.671  0.684E+01  0.682E+01
 -5.661  0.727E+01  0.725E+01
 -5.651  0.771E+01  0.769E+01
 -5.641  0.815E+01  0.813E+01
 -5.631  0.859E+01  0.856E+01
 -5.621  0.901E+01  0.899E+01
 -5.611  0.942E+01  0.939E+01
 -5.601  0.979E+01  0.977E+01
 -5.591  0.101E+02  0.101E+02
 -5.581  0.104E+02  0.104E+02
 -5.571  0.107E+02  0.107E+02
 -5.561  0.109E+02  0.108E+02
 -5.551  0.110E+02  0.110E+02
 -5.541  0.110E+02  0.110E+02
 -5.531  0.110E+02  0.110E+02
 -5.521  0.109E+02  0.109E+02
 -5.511  0.107E+02  0.107E+02
 -5.501  0.105E+02  0.104E+02
 -5.491  0.101E+02  0.101E+02
 -5.481  0.975E+01  0.972E+01
 -5.471  0.929E+01  0.926E+01
 -5.461  0.878E+01  0.875E+01
 -5.451  0.822E+01  0.820E+01
 -5.441  0.764E+01  0.762E+01
 -5.431  0.703E+01  0.702E+01
 -5.421  0.642E+01  0.640E+01
 -5.411  0.580E+01  0.579E+01
 -5.401  0.520E+01  0.519E+01
 -5.391  0.462E+01  0.460E+01
 -5.381  0.406E+01  0.405E+01
 -5.371  0.354E+01  0.353E+01
 -5.361  0.305E+01  0.304E+01
 -5.351  0.261E+01  0.260E+01
 -5.341  0.221E+01  0.220E+01
 -5.331  0.185E+01  0.184E+01
 -5.321  0.153E+01  0.153E+01
 -5.311  0.126E+01  0.126E+01
 -5.301  0.102E+01  0.102E+01
 -5.291  0.825E+00  0.823E+00
 -5.281  0.658E+00  0.656E+00
 -5.271  0.519E+00  0.518E+00
 -5.261  0.405E+00  0.404E+00
 -5.251  0.313E+00  0.313E+00
 -5.241  0.240E+00  0.239E+00
 -5.231  0.182E+00  0.181E+00
 -5.221  0.136E+00  0.136E+00
 -5.211  0.101E+00  0.101E+00
 -5.201  0.743E-01  0.741E-01
 -5.191  0.540E-01  0.538E-01
 -5.181  0.388E-01  0.387E-01
 -5.171  0.277E-01  0.276E-01
 -5.161  0.195E-01  0.194E-01
 -5.151  0.136E-01  0.135E-01
 -5.141  0.937E-02  0.935E-02
 -5.131  0.640E-02  0.638E-02
 -5.121  0.432E-02  0.431E-02
 -5.111  0.289E-02  0.288E-02
 -5.101  0.191E-02  0.191E-02
 -5.091  0.125E-02  0.125E-02
 -5.081  0.812E-03  0.809E-03
 -5.071  0.520E-03  0.519E-03
 -5.061  0.330E-03  0.329E-03
 -5.051  0.207E-03  0.207E-03
 -5.041  0.129E-03  0.128E-03
 -5.031  0.791E-04  0.788E-04
 -5.021  0.481E-04  0.479E-04
 -5.011  0.289E-04  0.288E-04
 -5.001  0.172E-04  0.172E-04
 -4.991  0.101E-04  0.101E-04
 -4.981  0.591E-05  0.589E-05
 -4.971  0.341E-05  0.340E-05
 -4.961  0.194E-05  0.194E-05
 -4.951  0.110E-05  0.109E-05
 -4.941  0.613E-06  0.611E-06
 -4.931  0.339E-06  0.338E-06
 -4.921  0.185E-06  0.185E-06
 -4.911  0.100E-06  0.999E-07
 -4.901  0.536E-07  0.534E-07
 -4.891  0.284E-07  0.283E-07
 -4.881  0.149E-07  0.148E-07
 -4.871  0.770E-08  0.768E-08
 -4.861  0.395E-08  0.394E-08
 -4.851  0.200E-08  0.200E-08
 -4.841  0.100E-08  0.100E-08
 -4.831  0.496E-09  0.495E-09
 -4.821  0.242E-09  0.241E-09
 -4.811  0.117E-09  0.116E-09
 -4.801  0.583E-10  0.582E-10
 -4.791  0.392E-10  0.392E-10
 -4.781  0.474E-10  0.474E-10
 -4.771  0.107E-09  0.107E-09
 -4.761  0.240E-09  0.240E-09
 -4.751  0.506E-09  0.506E-09
 -4.741  0.103E-08  0.103E-08
 -4.731  0.208E-08  0.208E-08
 -4.721  0.411E-08  0.411E-08
 -4.711  0.803E-08  0.803E-08
 -4.701  0.155E-07  0.155E-07
 -4.691  0.297E-07  0.297E-07
 -4.681  0.562E-07  0.562E-07
 -4.671  0.105E-06  0.105E-06
 -4.661  0.195E-06  0.195E-06
 -4.651  0.359E-06  0.359E-06
 -4.641  0.652E-06  0.651E-06
 -4.631  0.117E-05  0.117E-05
 -4.621  0.208E-05  0.208E-05
 -4.611  0.367E-05  0.367E-05
 -4.601  0.640E-05  0.640E-05
 -4.591  0.111E-04  0.110E-04
 -4.581  0.189E-04  0.189E-04
 -4.571  0.319E-04  0.319E-04
 -4.561  0.534E-04  0.534E-04
 -4.551  0.886E-04  0.885E-04
 -4.541  0.145E-03  0.145E-03
 -4.531  0.236E-03  0.236E-03
 -4.521  0.379E-03  0.379E-03
 -4.511  0.603E-03  0.603E-03
 -4.501  0.950E-03  0.949E-03
 -4.491  0.148E-02  0.148E-02
 -4.481  0.229E-02  0.228E-02
 -4.471  0.349E-02  0.349E-02
 -4.461  0.528E-02  0.528E-02
 -4.451  0.791E-02  0.791E-02
 -4.441  0.117E-01  0.117E-01
 -4.431  0.172E-01  0.172E-01
 -4.421  0.250E-01  0.250E-01
 -4.411  0.360E-01  0.360E-01
 -4.401  0.513E-01  0.512E-01
 -4.391  0.723E-01  0.723E-01
 -4.381  0.101E+00  0.101E+00
 -4.371  0.140E+00  0.140E+00
 -4.361  0.191E+00  0.191E+00
 -4.351  0.259E+00  0.259E+00
 -4.341  0.348E+00  0.348E+00
 -4.331  0.462E+00  0.462E+00
 -4.321  0.609E+00  0.608E+00
 -4.311  0.793E+00  0.793E+00
 -4.301  0.102E+01  0.102E+01
 -4.291  0.131E+01  0.131E+01
 -4.281  0.166E+01  0.166E+01
 -4.271  0.208E+01  0.208E+01
 -4.261  0.259E+01  0.259E+01
 -4.251  0.318E+01  0.318E+01
 -4.241  0.388E+01  0.388E+01
 -4.231  0.469E+01  0.469E+01
 -4.221  0.562E+01  0.562E+01
 -4.211  0.667E+01  0.667E+01
 -4.201  0.784E+01  0.784E+01
 -4.191  0.914E+01  0.914E+01
 -4.181  0.106E+02  0.106E+02
 -4.171  0.121E+02  0.121E+02
 -4.161  0.137E+02  0.137E+02
 -4.151  0.155E+02  0.155E+02
 -4.141  0.173E+02  0.173E+02
 -4.131  0.192E+02  0.192E+02
 -4.121  0.211E+02  0.211E+02
 -4.111  0.231E+02  0.231E+02
 -4.101  0.250E+02  0.250E+02
 -4.091  0.270E+02  0.269E+02
 -4.081  0.288E+02  0.288E+02
 -4.071  0.307E+02  0.307E+02
 -4.061  0.324E+02  0.324E+02
 -4.051  0.341E+02  0.341E+02
 -4.041  0.357E+02  0.357E+02
 -4.031  0.371E+02  0.371E+02
 -4.021  0.385E+02  0.385E+02
 -4.011  0.397E+02  0.397E+02
 -4.001  0.408E+02  0.408E+02
 -3.991  0.418E+02  0.418E+02
 -3.981  0.426E+02  0.426E+02
 -3.971  0.433E+02  0.433E+02
 -3.961  0.439E+02  0.439E+02
 -3.951  0.444E+02  0.444E+02
 -3.941  0.447E+02  0.447E+02
 -3.931  0.448E+02  0.448E+02
 -3.921  0.448E+02  0.448E+02
 -3.911  0.447E+02  0.447E+02
 -3.901  0.444E+02  0.444E+02
 -3.891  0.439E+02  0.439E+02
 -3.881  0.432E+02  0.432E+02
 -3.871  0.423E+02  0.423E+02
 -3.861  0.413E+02  0.413E+02
 -3.851  0.401E+02  0.401E+02
 -3.841  0.387E+02  0.387E+02
 -3.831  0.371E+02  0.371E+02
 -3.821  0.354E+02  0.354E+02
 -3.811  0.335E+02  0.335E+02
 -3.801  0.316E+02  0.316E+02
 -3.791  0.296E+02  0.296E+02
 -3.781  0.275E+02  0.275E+02
 -3.771  0.254E+02  0.254E+02
 -3.761  0.233E+02  0.232E+02
 -3.751  0.212E+02  0.212E+02
 -3.741  0.191E+02  0.191E+02
 -3.731  0.172E+02  0.172E+02
 -3.721  0.153E+02  0.153E+02
 -3.711  0.136E+02  0.136E+02
 -3.701  0.119E+02  0.119E+02
 -3.691  0.104E+02  0.104E+02
 -3.681  0.909E+01  0.908E+01
 -3.671  0.787E+01  0.787E+01
 -3.661  0.679E+01  0.679E+01
 -3.651  0.584E+01  0.584E+01
 -3.641  0.502E+01  0.502E+01
 -3.631  0.431E+01  0.431E+01
 -3.621  0.371E+01  0.371E+01
 -3.611  0.321E+01  0.321E+01
 -3.601  0.279E+01  0.279E+01
 -3.591  0.245E+01  0.245E+01
 -3.581  0.217E+01  0.217E+01
 -3.571  0.195E+01  0.195E+01
 -3.561  0.177E+01  0.177E+01
 -3.551  0.163E+01  0.163E+01
 -3.541  0.152E+01  0.152E+01
 -3.531  0.144E+01  0.144E+01
 -3.521  0.138E+01  0.138E+01
 -3.511  0.133E+01  0.133E+01
 -3.501  0.130E+01  0.130E+01
 -3.491  0.127E+01  0.127E+01
 -3.481  0.126E+01  0.126E+01
 -3.471  0.125E+01  0.125E+01
 -3.461  0.124E+01  0.124E+01
 -3.451  0.124E+01  0.124E+01
 -3.441  0.124E+01  0.124E+01
 -3.431  0.124E+01  0.124E+01
 -3.421  0.124E+01  0.124E+01
 -3.411  0.124E+01  0.124E+01
 -3.401  0.124E+01  0.124E+01
 -3.391  0.125E+01  0.124E+01
 -3.381  0.125E+01  0.125E+01
 -3.371  0.125E+01  0.125E+01
 -3.361  0.125E+01  0.125E+01
 -3.351  0.126E+01  0.126E+01
 -3.341  0.126E+01  0.126E+01
 -3.331  0.126E+01  0.126E+01
 -3.321  0.127E+01  0.127E+01
 -3.311  0.127E+01  0.127E+01
 -3.301  0.128E+01  0.127E+01
 -3.291  0.128E+01  0.128E+01
 -3.281  0.129E+01  0.129E+01
 -3.271  0.129E+01  0.129E+01
 -3.261  0.130E+01  0.130E+01
 -3.251  0.131E+01  0.131E+01
 -3.241  0.132E+01  0.132E+01
 -3.231  0.133E+01  0.133E+01
 -3.221  0.134E+01  0.133E+01
 -3.211  0.135E+01  0.134E+01
 -3.201  0.136E+01  0.135E+01
 -3.191  0.136E+01  0.136E+01
 -3.181  0.137E+01  0.137E+01
 -3.171  0.138E+01  0.138E+01
 -3.161  0.139E+01  0.139E+01
 -3.151  0.140E+01  0.139E+01
 -3.141  0.140E+01  0.140E+01
 -3.131  0.141E+01  0.141E+01
 -3.121  0.142E+01  0.141E+01
 -3.111  0.142E+01  0.142E+01
 -3.101  0.143E+01  0.143E+01
 -3.091  0.143E+01  0.143E+01
 -3.081  0.144E+01  0.144E+01
 -3.071  0.145E+01  0.145E+01
 -3.061  0.146E+01  0.146E+01
 -3.051  0.147E+01  0.147E+01
 -3.041  0.148E+01  0.148E+01
 -3.031  0.149E+01  0.149E+01
 -3.021  0.150E+01  0.150E+01
 -3.011  0.152E+01  0.151E+01
 -3.001  0.153E+01  0.153E+01
 -2.991  0.155E+01  0.154E+01
 -2.981  0.156E+01  0.156E+01
 -2.971  0.158E+01  0.158E+01
 -2.961  0.159E+01  0.159E+01
 -2.951  0.161E+01  0.161E+01
 -2.941  0.163E+01  0.163E+01
 -2.931  0.165E+01  0.164E+01
 -2.921  0.166E+01  0.166E+01
 -2.911  0.168E+01  0.168E+01
 -2.901  0.170E+01  0.169E+01
 -2.891  0.171E+01  0.171E+01
 -2.881  0.173E+01  0.173E+01
 -2.871  0.175E+01  0.174E+01
 -2.861  0.177E+01  0.176E+01
 -2.851  0.178E+01  0.178E+01
 -2.841  0.180E+01  0.180E+01
 -2.831  0.182E+01  0.182E+01
 -2.821  0.185E+01  0.184E+01
 -2.811  0.187E+01  0.187E+01
 -2.801  0.189E+01  0.189E+01
 -2.791  0.192E+01  0.192E+01
 -2.781  0.195E+01  0.194E+01
 -2.771  0.198E+01  0.197E+01
 -2.761  0.201E+01  0.200E+01
 -2.751  0.204E+01  0.204E+01
 -2.741  0.207E+01  0.207E+01
 -2.731  0.211E+01  0.211E+01
 -2.721  0.215E+01  0.214E+01
 -2.711  0.218E+01  0.218E+01
 -2.701  0.222E+01  0.221E+01
 -2.691  0.225E+01  0.225E+01
 -2.681  0.229E+01  0.228E+01
 -2.671  0.232E+01  0.232E+01
 -2.661  0.236E+01  0.235E+01
 -2.651  0.239E+01  0.238E+01
 -2.641  0.242E+01  0.241E+01
 -2.631  0.244E+01  0.244E+01
 -2.621  0.247E+01  0.246E+01
 -2.611  0.249E+01  0.248E+01
 -2.601  0.251E+01  0.251E+01
 -2.591  0.253E+01  0.253E+01
 -2.581  0.255E+01  0.254E+01
 -2.571  0.256E+01  0.256E+01
 -2.561  0.258E+01  0.257E+01
 -2.551  0.259E+01  0.259E+01
 -2.541  0.261E+01  0.260E+01
 -2.531  0.262E+01  0.261E+01
 -2.521  0.263E+01  0.262E+01
 -2.511  0.264E+01  0.263E+01
 -2.501  0.265E+01  0.264E+01
 -2.491  0.266E+01  0.265E+01
 -2.481  0.267E+01  0.266E+01
 -2.471  0.267E+01  0.267E+01
 -2.461  0.268E+01  0.267E+01
 -2.451  0.268E+01  0.268E+01
 -2.441  0.269E+01  0.268E+01
 -2.431  0.269E+01  0.269E+01
 -2.421  0.270E+01  0.269E+01
 -2.411  0.270E+01  0.269E+01
 -2.401  0.270E+01  0.270E+01
 -2.391  0.271E+01  0.270E+01
 -2.381  0.271E+01  0.270E+01
 -2.371  0.271E+01  0.271E+01
 -2.361  0.272E+01  0.271E+01
 -2.351  0.272E+01  0.272E+01
 -2.341  0.273E+01  0.273E+01
 -2.331  0.274E+01  0.273E+01
 -2.321  0.275E+01  0.274E+01
 -2.311  0.276E+01  0.275E+01
 -2.301  0.277E+01  0.277E+01
 -2.291  0.279E+01  0.278E+01
 -2.281  0.280E+01  0.280E+01
 -2.271  0.282E+01  0.281E+01
 -2.261  0.284E+01  0.283E+01
 -2.251  0.286E+01  0.285E+01
 -2.241  0.288E+01  0.287E+01
 -2.231  0.290E+01  0.289E+01
 -2.221  0.292E+01  0.292E+01
 -2.211  0.295E+01  0.294E+01
 -2.201  0.297E+01  0.296E+01
 -2.191  0.299E+01  0.299E+01
 -2.181  0.302E+01  0.301E+01
 -2.171  0.304E+01  0.303E+01
 -2.161  0.305E+01  0.304E+01
 -2.151  0.307E+01  0.306E+01
 -2.141  0.308E+01  0.307E+01
 -2.131  0.309E+01  0.308E+01
 -2.121  0.309E+01  0.308E+01
 -2.111  0.308E+01  0.307E+01
 -2.101  0.307E+01  0.306E+01
 -2.091  0.305E+01  0.304E+01
 -2.081  0.302E+01  0.301E+01
 -2.071  0.298E+01  0.297E+01
 -2.061  0.293E+01  0.293E+01
 -2.051  0.288E+01  0.287E+01
 -2.041  0.281E+01  0.280E+01
 -2.031  0.273E+01  0.272E+01
 -2.021  0.265E+01  0.264E+01
 -2.011  0.255E+01  0.254E+01
 -2.001  0.244E+01  0.244E+01
 -1.991  0.233E+01  0.233E+01
 -1.981  0.221E+01  0.221E+01
 -1.971  0.209E+01  0.208E+01
 -1.961  0.196E+01  0.196E+01
 -1.951  0.183E+01  0.183E+01
 -1.941  0.170E+01  0.169E+01
 -1.931  0.157E+01  0.156E+01
 -1.921  0.144E+01  0.143E+01
 -1.911  0.131E+01  0.130E+01
 -1.901  0.118E+01  0.118E+01
 -1.891  0.106E+01  0.106E+01
 -1.881  0.949E+00  0.946E+00
 -1.871  0.841E+00  0.838E+00
 -1.861  0.740E+00  0.738E+00
 -1.851  0.647E+00  0.645E+00
 -1.841  0.561E+00  0.559E+00
 -1.831  0.483E+00  0.482E+00
 -1.821  0.413E+00  0.411E+00
 -1.811  0.350E+00  0.349E+00
 -1.801  0.294E+00  0.294E+00
 -1.791  0.246E+00  0.245E+00
 -1.781  0.204E+00  0.203E+00
 -1.771  0.167E+00  0.167E+00
 -1.761  0.136E+00  0.136E+00
 -1.751  0.110E+00  0.110E+00
 -1.741  0.882E-01  0.879E-01
 -1.731  0.701E-01  0.698E-01
 -1.721  0.552E-01  0.550E-01
 -1.711  0.431E-01  0.430E-01
 -1.701  0.334E-01  0.333E-01
 -1.691  0.256E-01  0.255E-01
 -1.681  0.195E-01  0.194E-01
 -1.671  0.147E-01  0.146E-01
 -1.661  0.110E-01  0.109E-01
 -1.651  0.811E-02  0.808E-02
 -1.641  0.595E-02  0.593E-02
 -1.631  0.432E-02  0.431E-02
 -1.621  0.311E-02  0.310E-02
 -1.611  0.222E-02  0.221E-02
 -1.601  0.157E-02  0.156E-02
 -1.591  0.110E-02  0.109E-02
 -1.581  0.759E-03  0.757E-03
 -1.571  0.521E-03  0.520E-03
 -1.561  0.354E-03  0.353E-03
 -1.551  0.239E-03  0.238E-03
 -1.541  0.159E-03  0.159E-03
 -1.531  0.105E-03  0.105E-03
 -1.521  0.686E-04  0.684E-04
 -1.511  0.444E-04  0.443E-04
 -1.501  0.285E-04  0.284E-04
 -1.491  0.181E-04  0.180E-04
 -1.481  0.114E-04  0.113E-04
 -1.471  0.706E-05  0.704E-05
 -1.461  0.435E-05  0.434E-05
 -1.451  0.265E-05  0.264E-05
 -1.441  0.160E-05  0.160E-05
 -1.431  0.957E-06  0.954E-06
 -1.421  0.566E-06  0.564E-06
 -1.411  0.331E-06  0.330E-06
 -1.401  0.192E-06  0.191E-06
 -1.391  0.110E-06  0.110E-06
 -1.381  0.625E-07  0.623E-07
 -1.371  0.351E-07  0.350E-07
 -1.361  0.196E-07  0.195E-07
 -1.351  0.108E-07  0.107E-07
 -1.341  0.587E-08  0.585E-08
 -1.331  0.316E-08  0.315E-08
 -1.321  0.169E-08  0.168E-08
 -1.311  0.891E-09  0.889E-09
 -1.301  0.466E-09  0.464E-09
 -1.291  0.241E-09  0.240E-09
 -1.281  0.123E-09  0.123E-09
 -1.271  0.621E-10  0.619E-10
 -1.261  0.310E-10  0.309E-10
 -1.251  0.150E-10  0.150E-10
 -1.241  0.727E-11  0.725E-11
 -1.231  0.340E-11  0.339E-11
 -1.221  0.147E-11  0.146E-11
 -1.211  0.515E-12  0.514E-12
 -1.201  0.173E-12  0.173E-12
 -1.191  0.428E-13  0.427E-13
 -1.181  0.000E+00  0.000E+00
 -1.171  0.000E+00  0.000E+00
 -1.161  0.000E+00  0.000E+00
 -1.151  0.000E+00  0.000E+00
 -1.141  0.000E+00  0.000E+00
 -1.131  0.000E+00  0.000E+00
 -1.121  0.000E+00  0.000E+00
 -1.111  0.000E+00  0.000E+00
 -1.101  0.000E+00  0.000E+00
 -1.091  0.000E+00  0.000E+00
 -1.081  0.000E+00  0.000E+00
 -1.071  0.000E+00  0.000E+00
 -1.061  0.000E+00  0.000E+00
 -1.051  0.000E+00  0.000E+00
 -1.041  0.000E+00  0.000E+00
 -1.031  0.000E+00  0.000E+00
 -1.021  0.000E+00  0.000E+00
 -1.011  0.000E+00  0.000E+00
 -1.001  0.000E+00  0.000E+00
 -0.991  0.000E+00  0.000E+00
 -0.981  0.000E+00  0.000E+00
 -0.971  0.000E+00  0.000E+00
 -0.961  0.000E+00  0.000E+00
 -0.951  0.000E+00  0.000E+00
 -0.941  0.000E+00  0.000E+00
 -0.931  0.000E+00  0.000E+00
 -0.921  0.000E+00  0.000E+00
 -0.911  0.000E+00  0.000E+00
 -0.901  0.000E+00  0.000E+00
 -0.891  0.000E+00  0.000E+00
 -0.881  0.000E+00  0.000E+00
 -0.871  0.000E+00  0.000E+00
 -0.861  0.000E+00  0.000E+00
 -0.851  0.000E+00  0.000E+00
 -0.841  0.000E+00  0.000E+00
 -0.831  0.000E+00  0.000E+00
 -0.821  0.000E+00  0.000E+00
 -0.811  0.000E+00  0.000E+00
 -0.801  0.000E+00  0.000E+00
 -0.791  0.000E+00  0.000E+00
 -0.781  0.000E+00  0.000E+00
 -0.771  0.000E+00  0.000E+00
 -0.761  0.000E+00  0.000E+00
 -0.751  0.000E+00  0.000E+00
 -0.741  0.000E+00  0.000E+00
 -0.731  0.000E+00  0.000E+00
 -0.721  0.000E+00  0.000E+00
 -0.711  0.000E+00  0.000E+00
 -0.701  0.000E+00  0.000E+00
 -0.691  0.000E+00  0.000E+00
 -0.681  0.000E+00  0.000E+00
 -0.671  0.000E+00  0.000E+00
 -0.661  0.000E+00  0.000E+00
 -0.651  0.000E+00  0.000E+00
 -0.641  0.000E+00  0.000E+00
 -0.631  0.000E+00  0.000E+00
 -0.621  0.000E+00  0.000E+00
 -0.611  0.000E+00  0.000E+00
 -0.601  0.000E+00  0.000E+00
 -0.591  0.000E+00  0.000E+00
 -0.581  0.000E+00  0.000E+00
 -0.571  0.000E+00  0.000E+00
 -0.561  0.000E+00  0.000E+00
 -0.551  0.000E+00  0.000E+00
 -0.541  0.000E+00  0.000E+00
 -0.531  0.000E+00  0.000E+00
 -0.521  0.000E+00  0.000E+00
 -0.511  0.000E+00  0.000E+00
 -0.501  0.000E+00  0.000E+00
 -0.491  0.000E+00  0.000E+00
 -0.481  0.000E+00  0.000E+00
 -0.471  0.000E+00  0.000E+00
 -0.461  0.000E+00  0.000E+00
 -0.451  0.000E+00  0.000E+00
 -0.441  0.000E+00  0.000E+00
 -0.431  0.000E+00  0.000E+00
 -0.421  0.000E+00  0.000E+00
 -0.411  0.000E+00  0.000E+00
 -0.401  0.000E+00  0.000E+00
 -0.391  0.000E+00  0.000E+00
 -0.381  0.000E+00  0.000E+00
 -0.371  0.000E+00  0.000E+00
 -0.361  0.000E+00  0.000E+00
 -0.351  0.000E+00  0.000E+00
 -0.341  0.000E+00  0.000E+00
 -0.331  0.000E+00  0.000E+00
 -0.321  0.000E+00  0.000E+00
 -0.311  0.000E+00  0.000E+00
 -0.301  0.000E+00  0.000E+00
 -0.291  0.000E+00  0.000E+00
 -0.281  0.000E+00  0.000E+00
 -0.271  0.000E+00  0.000E+00
 -0.261  0.000E+00  0.000E+00
 -0.251  0.000E+00  0.000E+00
 -0.241  0.000E+00  0.000E+00
 -0.231  0.000E+00  0.000E+00
 -0.221  0.000E+00  0.000E+00
 -0.211  0.000E+00  0.000E+00
 -0.201  0.000E+00  0.000E+00
 -0.191  0.000E+00  0.000E+00
 -0.181  0.000E+00  0.000E+00
 -0.171  0.000E+00  0.000E+00
 -0.161  0.000E+00  0.000E+00
 -0.151  0.000E+00  0.000E+00
 -0.141  0.000E+00  0.000E+00
 -0.131  0.000E+00  0.000E+00
 -0.121  0.000E+00  0.000E+00
 -0.111  0.000E+00  0.000E+00
 -0.101  0.000E+00  0.000E+00
 -0.091  0.000E+00  0.000E+00
 -0.081  0.000E+00  0.000E+00
 -0.071  0.000E+00  0.000E+00
 -0.061  0.000E+00  0.000E+00
 -0.051  0.000E+00  0.000E+00
 -0.041  0.000E+00  0.000E+00
 -0.031  0.000E+00  0.000E+00
 -0.021  0.000E+00  0.000E+00
 -0.011  0.000E+00  0.000E+00
 -0.001  0.000E+00  0.000E+00
  0.009  0.000E+00  0.000E+00
  0.019  0.000E+00  0.000E+00
  0.029  0.000E+00  0.000E+00
  0.039  0.000E+00  0.000E+00
  0.049  0.000E+00  0.000E+00
  0.059  0.000E+00  0.000E+00
  0.069  0.000E+00  0.000E+00
  0.079  0.000E+00  0.000E+00
  0.089  0.000E+00  0.000E+00
  0.099  0.000E+00  0.000E+00
  0.109  0.000E+00  0.000E+00
  0.119  0.000E+00  0.000E+00
  0.129  0.000E+00  0.000E+00
  0.139  0.000E+00  0.000E+00
  0.149  0.000E+00  0.000E+00
  0.159  0.000E+00  0.000E+00
  0.169  0.000E+00  0.000E+00
  0.179  0.000E+00  0.000E+00
  0.189  0.000E+00  0.000E+00
  0.199  0.000E+00  0.000E+00
  0.209  0.000E+00  0.000E+00
  0.219  0.000E+00  0.000E+00
  0.229  0.000E+00  0.000E+00
  0.239  0.000E+00  0.000E+00
  0.249  0.000E+00  0.000E+00
  0.259  0.000E+00  0.000E+00
  0.269  0.000E+00  0.000E+00
  0.279  0.000E+00  0.000E+00
  0.289  0.000E+00  0.000E+00
  0.299  0.000E+00  0.000E+00
  0.309  0.000E+00  0.000E+00
  0.319  0.000E+00  0.000E+00
  0.329  0.000E+00  0.000E+00
  0.339  0.000E+00  0.000E+00
  0.349  0.000E+00  0.000E+00
  0.359  0.000E+00  0.000E+00
  0.369  0.000E+00  0.000E+00
  0.379  0.000E+00  0.000E+00
  0.389  0.000E+00  0.000E+00
  0.399  0.000E+00  0.000E+00
  0.409  0.000E+00  0.000E+00
  0.419  0.000E+00  0.000E+00
  0.429  0.000E+00  0.000E+00
  0.439  0.000E+00  0.000E+00
  0.449  0.000E+00  0.000E+00
  0.459  0.000E+00  0.000E+00
  0.469  0.000E+00  0.000E+00
  0.479  0.000E+00  0.000E+00
  0.489  0.000E+00  0.000E+00
  0.499  0.000E+00  0.000E+00
  0.509  0.000E+00  0.000E+00
  0.519  0.000E+00  0.000E+00
  0.529  0.000E+00  0.000E+00
  0.539  0.000E+00  0.000E+00
  0.549  0.000E+00  0.000E+00
  0.559  0.000E+00  0.000E+00
  0.569  0.000E+00  0.000E+00
  0.579  0.000E+00  0.000E+00
  0.589  0.000E+00  0.000E+00
  0.599  0.000E+00  0.000E+00
  0.609  0.000E+00  0.000E+00
  0.619  0.000E+00  0.000E+00
  0.629  0.000E+00  0.000E+00
  0.639  0.000E+00  0.000E+00
  0.649  0.000E+00  0.000E+00
  0.659  0.000E+00  0.000E+00
  0.669  0.000E+00  0.000E+00
  0.679  0.000E+00  0.000E+00
  0.689  0.000E+00  0.000E+00
  0.699  0.000E+00  0.000E+00
  0.709  0.000E+00  0.000E+00
  0.719  0.000E+00  0.000E+00
  0.729  0.000E+00  0.000E+00
  0.739  0.000E+00  0.000E+00
  0.749  0.000E+00  0.000E+00
  0.759  0.000E+00  0.000E+00
  0.769  0.000E+00  0.000E+00
  0.779  0.000E+00  0.000E+00
  0.789  0.000E+00  0.000E+00
  0.799  0.000E+00  0.000E+00
  0.809  0.000E+00  0.000E+00
  0.819  0.000E+00  0.000E+00
  0.829  0.000E+00  0.000E+00
  0.839  0.000E+00  0.000E+00
  0.849  0.000E+00  0.000E+00
  0.859  0.000E+00  0.000E+00
  0.869  0.000E+00  0.000E+00
  0.879  0.000E+00  0.000E+00
  0.889  0.000E+00  0.000E+00
  0.899  0.000E+00  0.000E+00
  0.909  0.000E+00  0.000E+00
  0.919  0.000E+00  0.000E+00
  0.929  0.000E+00  0.000E+00
  0.939  0.000E+00  0.000E+00
  0.949  0.000E+00  0.000E+00
  0.959  0.000E+00  0.000E+00
  0.969  0.000E+00  0.000E+00
  0.979  0.000E+00  0.000E+00
  0.989  0.000E+00  0.000E+00
  0.999  0.000E+00  0.000E+00
  1.009  0.000E+00  0.000E+00
  1.019  0.000E+00  0.000E+00
  1.029  0.000E+00  0.000E+00
  1.039  0.000E+00  0.000E+00
  1.049  0.000E+00  0.000E+00
  1.059  0.000E+00  0.000E+00
  1.069  0.000E+00  0.000E+00
  1.079  0.000E+00  0.000E+00
  1.089  0.000E+00  0.000E+00
  1.099  0.000E+00  0.000E+00
  1.109  0.000E+00  0.000E+00
  1.119  0.000E+00  0.000E+00
  1.129  0.000E+00  0.000E+00
  1.139  0.000E+00  0.000E+00
  1.149  0.000E+00  0.000E+00
  1.159  0.000E+00  0.000E+00
  1.169  0.000E+00  0.000E+00
  1.179  0.000E+00  0.000E+00
  1.189  0.000E+00  0.000E+00
  1.199  0.000E+00  0.000E+00
  1.209  0.000E+00  0.000E+00
  1.219  0.000E+00  0.000E+00
  1.229  0.000E+00  0.000E+00
  1.239  0.000E+00  0.000E+00
  1.249  0.000E+00  0.000E+00
  1.259  0.000E+00  0.000E+00
  1.269  0.000E+00  0.000E+00
  1.279  0.000E+00  0.000E+00
  1.289  0.000E+00  0.000E+00
  1.299  0.000E+00  0.000E+00
  1.309  0.000E+00  0.000E+00
  1.319  0.000E+00  0.000E+00
  1.329  0.000E+00  0.000E+00
  1.339  0.000E+00  0.000E+00
  1.349  0.000E+00  0.000E+00
  1.359  0.000E+00  0.000E+00
  1.369  0.000E+00  0.000E+00
  1.379  0.000E+00  0.000E+00
  1.389  0.000E+00  0.000E+00
  1.399  0.000E+00  0.000E+00
  1.409  0.000E+00  0.000E+00
  1.419  0.000E+00  0.000E+00
  1.429  0.000E+00  0.000E+00
  1.439  0.000E+00  0.000E+00
  1.449  0.000E+00  0.000E+00
  1.459  0.000E+00  0.000E+00
  1.469  0.000E+00  0.000E+00
  1.479  0.000E+00  0.000E+00
  1.489  0.000E+00  0.000E+00
  1.499  0.000E+00  0.000E+00
  1.509  0.000E+00  0.000E+00
  1.519  0.000E+00  0.000E+00
  1.529  0.000E+00  0.000E+00
  1.539  0.000E+00  0.000E+00
  1.549  0.000E+00  0.000E+00
  1.559  0.000E+00  0.000E+00
  1.569  0.000E+00  0.000E+00
  1.579  0.000E+00  0.000E+00
  1.589  0.000E+00  0.000E+00
  1.599  0.000E+00  0.000E+00
  1.609  0.000E+00  0.000E+00
  1.619  0.000E+00  0.000E+00
  1.629  0.000E+00  0.000E+00
  1.639  0.000E+00  0.000E+00
  1.649  0.000E+00  0.000E+00
  1.659  0.000E+00  0.000E+00
  1.669  0.000E+00  0.000E+00
  1.679  0.000E+00  0.000E+00
  1.689  0.000E+00  0.000E+00
  1.699  0.000E+00  0.000E+00
  1.709  0.000E+00  0.000E+00
  1.719  0.000E+00  0.000E+00
  1.729  0.000E+00  0.000E+00
  1.739  0.000E+00  0.000E+00
  1.749  0.139E-13  0.138E-13
  1.759  0.290E-13  0.289E-13
  1.769  0.597E-13  0.595E-13
  1.779  0.196E-12  0.195E-12
  1.789  0.401E-12  0.399E-12
  1.799  0.811E-12  0.809E-12
  1.809  0.163E-11  0.162E-11
  1.819  0.322E-11  0.321E-11
  1.829  0.632E-11  0.629E-11
  1.839  0.123E-10  0.123E-10
  1.849  0.237E-10  0.236E-10
  1.859  0.450E-10  0.449E-10
  1.869  0.848E-10  0.845E-10
  1.879  0.158E-09  0.157E-09
  1.889  0.291E-09  0.290E-09
  1.899  0.531E-09  0.529E-09
  1.909  0.958E-09  0.955E-09
  1.919  0.171E-08  0.171E-08
  1.929  0.302E-08  0.301E-08
  1.939  0.529E-08  0.527E-08
  1.949  0.916E-08  0.913E-08
  1.959  0.157E-07  0.156E-07
  1.969  0.266E-07  0.265E-07
  1.979  0.447E-07  0.445E-07
  1.989  0.742E-07  0.740E-07
  1.999  0.122E-06  0.122E-06
  2.009  0.199E-06  0.198E-06
  2.019  0.320E-06  0.319E-06
  2.029  0.510E-06  0.508E-06
  2.039  0.805E-06  0.802E-06
  2.049  0.126E-05  0.125E-05
  2.059  0.194E-05  0.194E-05
  2.069  0.298E-05  0.297E-05
  2.079  0.451E-05  0.449E-05
  2.089  0.677E-05  0.674E-05
  2.099  0.100E-04  0.100E-04
  2.109  0.148E-04  0.147E-04
  2.119  0.215E-04  0.214E-04
  2.129  0.310E-04  0.309E-04
  2.139  0.443E-04  0.441E-04
  2.149  0.626E-04  0.624E-04
  2.159  0.876E-04  0.873E-04
  2.169  0.122E-03  0.121E-03
  2.179  0.167E-03  0.166E-03
  2.189  0.227E-03  0.226E-03
  2.199  0.306E-03  0.305E-03
  2.209  0.409E-03  0.407E-03
  2.219  0.541E-03  0.539E-03
  2.229  0.710E-03  0.707E-03
  2.239  0.922E-03  0.919E-03
  2.249  0.119E-02  0.118E-02
  2.259  0.152E-02  0.151E-02
  2.269  0.192E-02  0.191E-02
  2.279  0.241E-02  0.240E-02
  2.289  0.300E-02  0.299E-02
  2.299  0.371E-02  0.370E-02
  2.309  0.455E-02  0.453E-02
  2.319  0.553E-02  0.551E-02
  2.329  0.667E-02  0.665E-02
  2.339  0.799E-02  0.797E-02
  2.349  0.951E-02  0.947E-02
  2.359  0.112E-01  0.112E-01
  2.369  0.132E-01  0.131E-01
  2.379  0.153E-01  0.153E-01
  2.389  0.178E-01  0.177E-01
  2.399  0.204E-01  0.204E-01
  2.409  0.234E-01  0.233E-01
  2.419  0.266E-01  0.265E-01
  2.429  0.301E-01  0.300E-01
  2.439  0.338E-01  0.337E-01
  2.449  0.379E-01  0.378E-01
  2.459  0.423E-01  0.421E-01
  2.469  0.469E-01  0.467E-01
  2.479  0.519E-01  0.517E-01
  2.489  0.572E-01  0.570E-01
  2.499  0.628E-01  0.626E-01
  2.509  0.688E-01  0.686E-01
  2.519  0.753E-01  0.750E-01
  2.529  0.821E-01  0.819E-01
  2.539  0.895E-01  0.892E-01
  2.549  0.975E-01  0.971E-01
  2.559  0.106E+00  0.106E+00
  2.569  0.115E+00  0.115E+00
  2.579  0.125E+00  0.125E+00
  2.589  0.137E+00  0.136E+00
  2.599  0.149E+00  0.148E+00
  2.609  0.162E+00  0.161E+00
  2.619  0.176E+00  0.176E+00
  2.629  0.192E+00  0.192E+00
  2.639  0.209E+00  0.209E+00
  2.649  0.228E+00  0.228E+00
  2.659  0.249E+00  0.248E+00
  2.669  0.271E+00  0.270E+00
  2.679  0.295E+00  0.294E+00
  2.689  0.321E+00  0.320E+00
  2.699  0.348E+00  0.347E+00
  2.709  0.377E+00  0.376E+00
  2.719  0.408E+00  0.406E+00
  2.729  0.440E+00  0.439E+00
  2.739  0.474E+00  0.472E+00
  2.749  0.508E+00  0.507E+00
  2.759  0.544E+00  0.543E+00
  2.769  0.581E+00  0.580E+00
  2.779  0.619E+00  0.617E+00
  2.789  0.658E+00  0.656E+00
  2.799  0.697E+00  0.695E+00
  2.809  0.736E+00  0.734E+00
  2.819  0.776E+00  0.774E+00
  2.829  0.816E+00  0.814E+00
  2.839  0.857E+00  0.854E+00
  2.849  0.897E+00  0.894E+00
  2.859  0.937E+00  0.934E+00
  2.869  0.977E+00  0.974E+00
  2.879  0.102E+01  0.101E+01
  2.889  0.106E+01  0.105E+01
  2.899  0.110E+01  0.109E+01
  2.909  0.114E+01  0.113E+01
  2.919  0.118E+01  0.117E+01
  2.929  0.121E+01  0.121E+01
  2.939  0.125E+01  0.125E+01
  2.949  0.129E+01  0.129E+01
  2.959  0.133E+01  0.132E+01
  2.969  0.136E+01  0.136E+01
  2.979  0.140E+01  0.139E+01
  2.989  0.143E+01  0.143E+01
  2.999  0.147E+01  0.146E+01
  3.009  0.150E+01  0.149E+01
  3.019  0.153E+01  0.153E+01
  3.029  0.156E+01  0.156E+01
  3.039  0.160E+01  0.159E+01
  3.049  0.163E+01  0.162E+01
  3.059  0.166E+01  0.166E+01
  3.069  0.169E+01  0.169E+01
  3.079  0.173E+01  0.172E+01
  3.089  0.176E+01  0.176E+01
  3.099  0.180E+01  0.179E+01
  3.109  0.183E+01  0.183E+01
  3.119  0.187E+01  0.186E+01
  3.129  0.191E+01  0.190E+01
  3.139  0.194E+01  0.194E+01
  3.149  0.198E+01  0.198E+01
  3.159  0.202E+01  0.202E+01
  3.169  0.206E+01  0.205E+01
  3.179  0.210E+01  0.209E+01
  3.189  0.214E+01  0.213E+01
  3.199  0.218E+01  0.217E+01
  3.209  0.221E+01  0.221E+01
  3.219  0.225E+01  0.224E+01
  3.229  0.229E+01  0.228E+01
  3.239  0.232E+01  0.231E+01
  3.249  0.235E+01  0.235E+01
  3.259  0.238E+01  0.238E+01
  3.269  0.242E+01  0.241E+01
  3.279  0.244E+01  0.244E+01
  3.289  0.247E+01  0.246E+01
  3.299  0.250E+01  0.249E+01
  3.309  0.252E+01  0.252E+01
  3.319  0.255E+01  0.254E+01
  3.329  0.257E+01  0.256E+01
  3.339  0.259E+01  0.258E+01
  3.349  0.261E+01  0.260E+01
  3.359  0.263E+01  0.262E+01
  3.369  0.265E+01  0.264E+01
  3.379  0.266E+01  0.266E+01
  3.389  0.268E+01  0.267E+01
  3.399  0.269E+01  0.268E+01
  3.409  0.270E+01  0.269E+01
  3.419  0.271E+01  0.270E+01
  3.429  0.271E+01  0.271E+01
  3.439  0.272E+01  0.271E+01
  3.449  0.272E+01  0.271E+01
  3.459  0.272E+01  0.271E+01
  3.469  0.271E+01  0.270E+01
  3.479  0.270E+01  0.269E+01
  3.489  0.269E+01  0.268E+01
  3.499  0.268E+01  0.267E+01
  3.509  0.266E+01  0.265E+01
  3.519  0.264E+01  0.263E+01
  3.529  0.261E+01  0.260E+01
  3.539  0.258E+01  0.258E+01
  3.549  0.255E+01  0.254E+01
  3.559  0.252E+01  0.251E+01
  3.569  0.248E+01  0.247E+01
  3.579  0.244E+01  0.243E+01
  3.589  0.239E+01  0.238E+01
  3.599  0.235E+01  0.234E+01
  3.609  0.230E+01  0.229E+01
  3.619  0.225E+01  0.224E+01
  3.629  0.219E+01  0.219E+01
  3.639  0.214E+01  0.213E+01
  3.649  0.209E+01  0.208E+01
  3.659  0.204E+01  0.203E+01
  3.669  0.198E+01  0.198E+01
  3.679  0.193E+01  0.193E+01
  3.689  0.188E+01  0.188E+01
  3.699  0.183E+01  0.183E+01
  3.709  0.179E+01  0.178E+01
  3.719  0.174E+01  0.174E+01
  3.729  0.170E+01  0.169E+01
  3.739  0.166E+01  0.165E+01
  3.749  0.162E+01  0.161E+01
  3.759  0.158E+01  0.158E+01
  3.769  0.155E+01  0.155E+01
  3.779  0.152E+01  0.151E+01
  3.789  0.149E+01  0.149E+01
  3.799  0.147E+01  0.146E+01
  3.809  0.144E+01  0.144E+01
  3.819  0.142E+01  0.142E+01
  3.829  0.141E+01  0.140E+01
  3.839  0.139E+01  0.139E+01
  3.849  0.138E+01  0.138E+01
  3.859  0.138E+01  0.137E+01
  3.869  0.137E+01  0.137E+01
  3.879  0.137E+01  0.137E+01
  3.889  0.138E+01  0.137E+01
  3.899  0.138E+01  0.138E+01
  3.909  0.139E+01  0.139E+01
  3.919  0.141E+01  0.140E+01
  3.929  0.142E+01  0.141E+01
  3.939  0.144E+01  0.143E+01
  3.949  0.145E+01  0.145E+01
  3.959  0.147E+01  0.146E+01
  3.969  0.149E+01  0.148E+01
  3.979  0.150E+01  0.149E+01
  3.989  0.152E+01  0.151E+01
  3.999  0.153E+01  0.152E+01
  4.009  0.154E+01  0.153E+01
  4.019  0.155E+01  0.154E+01
  4.029  0.155E+01  0.154E+01
  4.039  0.155E+01  0.154E+01
  4.049  0.155E+01  0.154E+01
  4.059  0.154E+01  0.154E+01
  4.069  0.154E+01  0.153E+01
  4.079  0.152E+01  0.152E+01
  4.089  0.151E+01  0.150E+01
  4.099  0.149E+01  0.149E+01
  4.109  0.148E+01  0.147E+01
  4.119  0.146E+01  0.145E+01
  4.129  0.144E+01  0.143E+01
  4.139  0.141E+01  0.141E+01
  4.149  0.139E+01  0.139E+01
  4.159  0.137E+01  0.137E+01
  4.169  0.135E+01  0.134E+01
  4.179  0.133E+01  0.132E+01
  4.189  0.131E+01  0.130E+01
  4.199  0.129E+01  0.128E+01
  4.209  0.127E+01  0.126E+01
  4.219  0.125E+01  0.124E+01
  4.229  0.123E+01  0.123E+01
  4.239  0.121E+01  0.121E+01
  4.249  0.119E+01  0.119E+01
  4.259  0.118E+01  0.117E+01
  4.269  0.116E+01  0.115E+01
  4.279  0.114E+01  0.114E+01
  4.289  0.113E+01  0.112E+01
  4.299  0.111E+01  0.111E+01
  4.309  0.110E+01  0.109E+01
  4.319  0.109E+01  0.108E+01
  4.329  0.108E+01  0.107E+01
  4.339  0.107E+01  0.107E+01
  4.349  0.107E+01  0.106E+01
  4.359  0.106E+01  0.106E+01
  4.369  0.106E+01  0.106E+01
  4.379  0.106E+01  0.106E+01
  4.389  0.107E+01  0.106E+01
  4.399  0.107E+01  0.107E+01
  4.409  0.108E+01  0.107E+01
  4.419  0.109E+01  0.108E+01
  4.429  0.110E+01  0.109E+01
  4.439  0.111E+01  0.110E+01
  4.449  0.112E+01  0.111E+01
  4.459  0.112E+01  0.112E+01
  4.469  0.113E+01  0.112E+01
  4.479  0.114E+01  0.113E+01
  4.489  0.114E+01  0.113E+01
  4.499  0.114E+01  0.113E+01
  4.509  0.114E+01  0.113E+01
  4.519  0.113E+01  0.112E+01
  4.529  0.112E+01  0.112E+01
  4.539  0.111E+01  0.110E+01
  4.549  0.110E+01  0.109E+01
  4.559  0.108E+01  0.107E+01
  4.569  0.106E+01  0.106E+01
  4.579  0.104E+01  0.104E+01
  4.589  0.102E+01  0.102E+01
  4.599  0.100E+01  0.996E+00
  4.609  0.982E+00  0.976E+00
  4.619  0.962E+00  0.955E+00
  4.629  0.942E+00  0.936E+00
  4.639  0.923E+00  0.917E+00
  4.649  0.906E+00  0.900E+00
  4.659  0.891E+00  0.885E+00
  4.669  0.877E+00  0.871E+00
  4.679  0.865E+00  0.859E+00
  4.689  0.854E+00  0.849E+00
  4.699  0.846E+00  0.840E+00
  4.709  0.838E+00  0.833E+00
  4.719  0.832E+00  0.827E+00
  4.729  0.828E+00  0.822E+00
  4.739  0.824E+00  0.818E+00
  4.749  0.821E+00  0.815E+00
  4.759  0.818E+00  0.813E+00
  4.769  0.816E+00  0.811E+00
  4.779  0.815E+00  0.809E+00
  4.789  0.814E+00  0.808E+00
  4.799  0.813E+00  0.807E+00
  4.809  0.812E+00  0.807E+00
  4.819  0.812E+00  0.806E+00
  4.829  0.812E+00  0.806E+00
  4.839  0.812E+00  0.807E+00
  4.849  0.813E+00  0.807E+00
  4.859  0.814E+00  0.808E+00
  4.869  0.815E+00  0.810E+00
  4.879  0.818E+00  0.812E+00
  4.889  0.820E+00  0.815E+00
  4.899  0.824E+00  0.818E+00
  4.909  0.828E+00  0.822E+00
  4.919  0.833E+00  0.827E+00
  4.929  0.839E+00  0.833E+00
  4.939  0.846E+00  0.840E+00
  4.949  0.854E+00  0.848E+00
  4.959  0.863E+00  0.857E+00
  4.969  0.874E+00  0.868E+00
  4.979  0.886E+00  0.879E+00
  4.989  0.899E+00  0.893E+00
  4.999  0.914E+00  0.908E+00
  5.009  0.931E+00  0.925E+00
  5.019  0.950E+00  0.943E+00
  5.029  0.971E+00  0.964E+00
  5.039  0.994E+00  0.987E+00
  5.049  0.102E+01  0.101E+01
  5.059  0.105E+01  0.104E+01
  5.069  0.108E+01  0.107E+01
  5.079  0.111E+01  0.110E+01
  5.089  0.114E+01  0.113E+01
  5.099  0.117E+01  0.117E+01
  5.109  0.121E+01  0.120E+01
  5.119  0.125E+01  0.124E+01
  5.129  0.128E+01  0.127E+01
  5.139  0.132E+01  0.131E+01
  5.149  0.135E+01  0.135E+01
  5.159  0.139E+01  0.138E+01
  5.169  0.142E+01  0.141E+01
  5.179  0.145E+01  0.144E+01
  5.189  0.148E+01  0.147E+01
  5.199  0.151E+01  0.150E+01
  5.209  0.153E+01  0.152E+01
  5.219  0.155E+01  0.154E+01
  5.229  0.157E+01  0.156E+01
  5.239  0.158E+01  0.157E+01
  5.249  0.160E+01  0.159E+01
  5.259  0.160E+01  0.159E+01
  5.269  0.161E+01  0.160E+01
  5.279  0.161E+01  0.160E+01
  5.289  0.161E+01  0.160E+01
  5.299  0.160E+01  0.159E+01
  5.309  0.160E+01  0.159E+01
  5.319  0.159E+01  0.158E+01
  5.329  0.158E+01  0.157E+01
  5.339  0.156E+01  0.155E+01
  5.349  0.155E+01  0.154E+01
  5.359  0.153E+01  0.152E+01
  5.369  0.152E+01  0.151E+01
  5.379  0.150E+01  0.149E+01
  5.389  0.148E+01  0.147E+01
  5.399  0.146E+01  0.145E+01
  5.409  0.144E+01  0.143E+01
  5.419  0.142E+01  0.141E+01
  5.429  0.140E+01  0.139E+01
  5.439  0.138E+01  0.137E+01
  5.449  0.136E+01  0.135E+01
  5.459  0.134E+01  0.134E+01
  5.469  0.133E+01  0.132E+01
  5.479  0.132E+01  0.131E+01
  5.489  0.130E+01  0.129E+01
  5.499  0.129E+01  0.128E+01
  5.509  0.129E+01  0.128E+01
  5.519  0.128E+01  0.127E+01
  5.529  0.128E+01  0.127E+01
  5.539  0.128E+01  0.127E+01
  5.549  0.128E+01  0.128E+01
  5.559  0.129E+01  0.128E+01
  5.569  0.130E+01  0.129E+01
  5.579  0.131E+01  0.130E+01
  5.589  0.133E+01  0.132E+01
  5.599  0.135E+01  0.134E+01
  5.609  0.136E+01  0.135E+01
  5.619  0.138E+01  0.137E+01
  5.629  0.141E+01  0.140E+01
  5.639  0.143E+01  0.142E+01
  5.649  0.145E+01  0.144E+01
  5.659  0.147E+01  0.146E+01
  5.669  0.149E+01  0.148E+01
  5.679  0.151E+01  0.150E+01
  5.689  0.153E+01  0.152E+01
  5.699  0.155E+01  0.154E+01
  5.709  0.156E+01  0.155E+01
  5.719  0.158E+01  0.156E+01
  5.729  0.159E+01  0.157E+01
  5.739  0.159E+01  0.158E+01
  5.749  0.159E+01  0.158E+01
  5.759  0.159E+01  0.158E+01
  5.769  0.159E+01  0.158E+01
  5.779  0.158E+01  0.157E+01
  5.789  0.157E+01  0.156E+01
  5.799  0.156E+01  0.155E+01
  5.809  0.155E+01  0.154E+01
  5.819  0.153E+01  0.152E+01
  5.829  0.152E+01  0.151E+01
  5.839  0.150E+01  0.149E+01
  5.849  0.148E+01  0.147E+01
  5.859  0.146E+01  0.145E+01
  5.869  0.145E+01  0.144E+01
  5.879  0.143E+01  0.142E+01
  5.889  0.142E+01  0.141E+01
  5.899  0.141E+01  0.140E+01
  5.909  0.140E+01  0.139E+01
  5.919  0.139E+01  0.138E+01
  5.929  0.139E+01  0.138E+01
  5.939  0.139E+01  0.138E+01
  5.949  0.139E+01  0.138E+01
  5.959  0.140E+01  0.139E+01
  5.969  0.141E+01  0.140E+01
  5.979  0.142E+01  0.141E+01
  5.989  0.143E+01  0.142E+01
  5.999  0.145E+01  0.144E+01
  6.009  0.147E+01  0.146E+01
  6.019  0.149E+01  0.148E+01
  6.029  0.151E+01  0.150E+01
  6.039  0.154E+01  0.152E+01
  6.049  0.156E+01  0.155E+01
  6.059  0.159E+01  0.157E+01
  6.069  0.161E+01  0.160E+01
  6.079  0.164E+01  0.163E+01
  6.089  0.166E+01  0.165E+01
  6.099  0.169E+01  0.167E+01
  6.109  0.171E+01  0.170E+01
  6.119  0.173E+01  0.172E+01
  6.129  0.175E+01  0.173E+01
  6.139  0.176E+01  0.175E+01
  6.149  0.178E+01  0.176E+01
  6.159  0.179E+01  0.177E+01
  6.169  0.179E+01  0.178E+01
  6.179  0.180E+01  0.179E+01
  6.189  0.180E+01  0.179E+01
  6.199  0.180E+01  0.179E+01
  6.209  0.180E+01  0.179E+01
  6.219  0.179E+01  0.178E+01
  6.229  0.179E+01  0.177E+01
  6.239  0.178E+01  0.176E+01
  6.249  0.177E+01  0.175E+01
  6.259  0.175E+01  0.174E+01
  6.269  0.174E+01  0.173E+01
  6.279  0.173E+01  0.171E+01
  6.289  0.171E+01  0.170E+01
  6.299  0.170E+01  0.169E+01
  6.309  0.169E+01  0.168E+01
  6.319  0.168E+01  0.166E+01
  6.329  0.167E+01  0.165E+01
  6.339  0.166E+01  0.164E+01
  6.349  0.165E+01  0.164E+01
  6.359  0.164E+01  0.163E+01
  6.369  0.164E+01  0.163E+01
  6.379  0.164E+01  0.163E+01
  6.389  0.164E+01  0.163E+01
  6.399  0.165E+01  0.164E+01
  6.409  0.166E+01  0.164E+01
  6.419  0.167E+01  0.165E+01
  6.429  0.168E+01  0.167E+01
  6.439  0.170E+01  0.169E+01
  6.449  0.172E+01  0.171E+01
  6.459  0.174E+01  0.173E+01
  6.469  0.177E+01  0.175E+01
  6.479  0.179E+01  0.178E+01
  6.489  0.182E+01  0.181E+01
  6.499  0.186E+01  0.184E+01
  6.509  0.189E+01  0.187E+01
  6.519  0.192E+01  0.191E+01
  6.529  0.195E+01  0.194E+01
  6.539  0.198E+01  0.197E+01
  6.549  0.201E+01  0.200E+01
  6.559  0.204E+01  0.203E+01
  6.569  0.207E+01  0.206E+01
  6.579  0.210E+01  0.208E+01
  6.589  0.212E+01  0.210E+01
  6.599  0.214E+01  0.212E+01
  6.609  0.216E+01  0.214E+01
  6.619  0.217E+01  0.216E+01
  6.629  0.218E+01  0.217E+01
  6.639  0.219E+01  0.218E+01
  6.649  0.220E+01  0.219E+01
  6.659  0.221E+01  0.219E+01
  6.669  0.221E+01  0.220E+01
  6.679  0.222E+01  0.220E+01
  6.689  0.222E+01  0.220E+01
  6.699  0.222E+01  0.220E+01
  6.709  0.222E+01  0.220E+01
  6.719  0.222E+01  0.220E+01
  6.729  0.221E+01  0.220E+01
  6.739  0.221E+01  0.220E+01
  6.749  0.221E+01  0.219E+01
  6.759  0.221E+01  0.219E+01
  6.769  0.221E+01  0.219E+01
  6.779  0.220E+01  0.219E+01
  6.789  0.220E+01  0.218E+01
  6.799  0.220E+01  0.218E+01
  6.809  0.220E+01  0.218E+01
  6.819  0.220E+01  0.218E+01
  6.829  0.220E+01  0.218E+01
  6.839  0.220E+01  0.218E+01
  6.849  0.220E+01  0.218E+01
  6.859  0.220E+01  0.218E+01
  6.869  0.221E+01  0.219E+01
  6.879  0.221E+01  0.219E+01
  6.889  0.222E+01  0.220E+01
  6.899  0.223E+01  0.221E+01
  6.909  0.224E+01  0.222E+01
  6.919  0.225E+01  0.224E+01
  6.929  0.227E+01  0.225E+01
  6.939  0.229E+01  0.227E+01
  6.949  0.230E+01  0.229E+01
  6.959  0.232E+01  0.231E+01
  6.969  0.235E+01  0.233E+01
  6.979  0.237E+01  0.235E+01
  6.989  0.239E+01  0.237E+01
  6.999  0.241E+01  0.239E+01
  7.009  0.243E+01  0.241E+01
  7.019  0.245E+01  0.243E+01
  7.029  0.247E+01  0.245E+01
  7.039  0.249E+01  0.247E+01
  7.049  0.250E+01  0.248E+01
  7.059  0.251E+01  0.249E+01
  7.069  0.252E+01  0.250E+01
  7.079  0.253E+01  0.251E+01
  7.089  0.254E+01  0.251E+01
  7.099  0.254E+01  0.252E+01
  7.109  0.254E+01  0.252E+01
  7.119  0.254E+01  0.252E+01
  7.129  0.254E+01  0.252E+01
  7.139  0.254E+01  0.251E+01
  7.149  0.253E+01  0.251E+01
  7.159  0.253E+01  0.251E+01
  7.169  0.254E+01  0.251E+01
  7.179  0.254E+01  0.252E+01
  7.189  0.255E+01  0.252E+01
  7.199  0.256E+01  0.253E+01
  7.209  0.257E+01  0.254E+01
  7.219  0.258E+01  0.256E+01
  7.229  0.260E+01  0.257E+01
  7.239  0.262E+01  0.259E+01
  7.249  0.264E+01  0.261E+01
  7.259  0.266E+01  0.264E+01
  7.269  0.269E+01  0.266E+01
  7.279  0.271E+01  0.268E+01
  7.289  0.273E+01  0.271E+01
  7.299  0.276E+01  0.273E+01
  7.309  0.278E+01  0.275E+01
  7.319  0.280E+01  0.277E+01
  7.329  0.282E+01  0.279E+01
  7.339  0.283E+01  0.280E+01
  7.349  0.284E+01  0.282E+01
  7.359  0.285E+01  0.282E+01
  7.369  0.286E+01  0.283E+01
  7.379  0.286E+01  0.284E+01
  7.389  0.287E+01  0.284E+01
  7.399  0.287E+01  0.284E+01
  7.409  0.287E+01  0.284E+01
  7.419  0.286E+01  0.284E+01
  7.429  0.286E+01  0.283E+01
  7.439  0.286E+01  0.283E+01
  7.449  0.286E+01  0.283E+01
  7.459  0.286E+01  0.283E+01
  7.469  0.286E+01  0.283E+01
  7.479  0.287E+01  0.284E+01
  7.489  0.287E+01  0.284E+01
  7.499  0.288E+01  0.285E+01
  7.509  0.289E+01  0.286E+01
  7.519  0.290E+01  0.287E+01
  7.529  0.291E+01  0.288E+01
  7.539  0.293E+01  0.290E+01
  7.549  0.295E+01  0.292E+01
  7.559  0.296E+01  0.293E+01
  7.569  0.298E+01  0.295E+01
  7.579  0.300E+01  0.297E+01
  7.589  0.303E+01  0.299E+01
  7.599  0.305E+01  0.302E+01
  7.609  0.307E+01  0.304E+01
  7.619  0.310E+01  0.306E+01
  7.629  0.312E+01  0.309E+01
  7.639  0.315E+01  0.311E+01
  7.649  0.317E+01  0.314E+01
  7.659  0.320E+01  0.317E+01
  7.669  0.323E+01  0.320E+01
  7.679  0.326E+01  0.323E+01
  7.689  0.329E+01  0.326E+01
  7.699  0.332E+01  0.329E+01
  7.709  0.336E+01  0.332E+01
  7.719  0.339E+01  0.336E+01
  7.729  0.343E+01  0.339E+01
  7.739  0.347E+01  0.343E+01
  7.749  0.351E+01  0.347E+01
  7.759  0.354E+01  0.351E+01
  7.769  0.358E+01  0.354E+01
  7.779  0.362E+01  0.358E+01
  7.789  0.365E+01  0.361E+01
  7.799  0.368E+01  0.364E+01
  7.809  0.371E+01  0.367E+01
  7.819  0.374E+01  0.370E+01
  7.829  0.377E+01  0.372E+01
  7.839  0.379E+01  0.374E+01
  7.849  0.380E+01  0.376E+01
  7.859  0.381E+01  0.377E+01
  7.869  0.382E+01  0.378E+01
  7.879  0.382E+01  0.378E+01
  7.889  0.382E+01  0.378E+01
  7.899  0.382E+01  0.377E+01
  7.909  0.381E+01  0.376E+01
  7.919  0.379E+01  0.375E+01
  7.929  0.377E+01  0.373E+01
  7.939  0.375E+01  0.371E+01
  7.949  0.372E+01  0.368E+01
  7.959  0.369E+01  0.365E+01
  7.969  0.366E+01  0.362E+01
  7.979  0.362E+01  0.358E+01
  7.989  0.358E+01  0.354E+01
  7.999  0.354E+01  0.350E+01
  8.009  0.350E+01  0.346E+01
  8.019  0.345E+01  0.341E+01
  8.029  0.341E+01  0.337E+01
  8.039  0.336E+01  0.332E+01
  8.049  0.331E+01  0.327E+01
  8.059  0.326E+01  0.322E+01
  8.069  0.321E+01  0.318E+01
  8.079  0.317E+01  0.313E+01
  8.089  0.312E+01  0.308E+01
  8.099  0.307E+01  0.304E+01
  8.109  0.303E+01  0.299E+01
  8.119  0.299E+01  0.295E+01
  8.129  0.295E+01  0.292E+01
  8.139  0.292E+01  0.288E+01
  8.149  0.288E+01  0.285E+01
  8.159  0.285E+01  0.282E+01
  8.169  0.282E+01  0.279E+01
  8.179  0.280E+01  0.276E+01
  8.189  0.277E+01  0.274E+01
  8.199  0.275E+01  0.271E+01
  8.209  0.273E+01  0.269E+01
  8.219  0.271E+01  0.267E+01
  8.229  0.268E+01  0.265E+01
  8.239  0.266E+01  0.263E+01
  8.249  0.264E+01  0.261E+01
  8.259  0.262E+01  0.258E+01
  8.269  0.259E+01  0.256E+01
  8.279  0.257E+01  0.253E+01
  8.289  0.254E+01  0.251E+01
  8.299  0.251E+01  0.248E+01
  8.309  0.248E+01  0.245E+01
  8.319  0.245E+01  0.242E+01
  8.329  0.242E+01  0.239E+01
  8.339  0.239E+01  0.235E+01
  8.349  0.235E+01  0.232E+01
  8.359  0.232E+01  0.229E+01
  8.369  0.228E+01  0.225E+01
  8.379  0.225E+01  0.222E+01
  8.389  0.222E+01  0.219E+01
  8.399  0.218E+01  0.215E+01
  8.409  0.215E+01  0.212E+01
  8.419  0.212E+01  0.209E+01
  8.429  0.208E+01  0.205E+01
  8.439  0.205E+01  0.202E+01
  8.449  0.202E+01  0.199E+01
  8.459  0.199E+01  0.196E+01
  8.469  0.196E+01  0.193E+01
  8.479  0.193E+01  0.190E+01
  8.489  0.190E+01  0.187E+01
  8.499  0.187E+01  0.184E+01
  8.509  0.184E+01  0.181E+01
  8.519  0.181E+01  0.178E+01
  8.529  0.178E+01  0.175E+01
  8.539  0.176E+01  0.173E+01
  8.549  0.173E+01  0.170E+01
  8.559  0.170E+01  0.168E+01
  8.569  0.168E+01  0.165E+01
  8.579  0.165E+01  0.163E+01
  8.589  0.163E+01  0.160E+01
  8.599  0.161E+01  0.158E+01
  8.609  0.158E+01  0.156E+01
  8.619  0.156E+01  0.154E+01
  8.629  0.154E+01  0.151E+01
  8.639  0.152E+01  0.149E+01
  8.649  0.150E+01  0.147E+01
  8.659  0.147E+01  0.145E+01
  8.669  0.145E+01  0.143E+01
  8.679  0.143E+01  0.141E+01
  8.689  0.141E+01  0.139E+01
  8.699  0.139E+01  0.137E+01
  8.709  0.137E+01  0.135E+01
  8.719  0.135E+01  0.133E+01
  8.729  0.133E+01  0.131E+01
  8.739  0.131E+01  0.129E+01
  8.749  0.130E+01  0.127E+01
  8.759  0.128E+01  0.126E+01
  8.769  0.126E+01  0.124E+01
  8.779  0.124E+01  0.122E+01
  8.789  0.123E+01  0.120E+01
  8.799  0.121E+01  0.119E+01
  8.809  0.119E+01  0.117E+01
  8.819  0.118E+01  0.116E+01
  8.829  0.116E+01  0.114E+01
  8.839  0.114E+01  0.112E+01
  8.849  0.113E+01  0.111E+01
  8.859  0.111E+01  0.109E+01
  8.869  0.110E+01  0.108E+01
  8.879  0.108E+01  0.106E+01
  8.889  0.106E+01  0.104E+01
  8.899  0.105E+01  0.103E+01
  8.909  0.103E+01  0.101E+01
  8.919  0.101E+01  0.995E+00
  8.929  0.998E+00  0.979E+00
  8.939  0.982E+00  0.963E+00
  8.949  0.965E+00  0.946E+00
  8.959  0.949E+00  0.930E+00
  8.969  0.932E+00  0.914E+00
  8.979  0.916E+00  0.898E+00
  8.989  0.899E+00  0.881E+00
  8.999  0.882E+00  0.865E+00
  9.009  0.865E+00  0.848E+00
  9.019  0.848E+00  0.831E+00
  9.029  0.831E+00  0.814E+00
  9.039  0.813E+00  0.797E+00
  9.049  0.796E+00  0.779E+00
  9.059  0.777E+00  0.761E+00
  9.069  0.759E+00  0.743E+00
  9.079  0.740E+00  0.725E+00
  9.089  0.721E+00  0.706E+00
  9.099  0.701E+00  0.686E+00
  9.109  0.681E+00  0.667E+00
  9.119  0.660E+00  0.646E+00
  9.129  0.639E+00  0.626E+00
  9.139  0.618E+00  0.604E+00
  9.149  0.595E+00  0.583E+00
  9.159  0.573E+00  0.561E+00
  9.169  0.550E+00  0.538E+00
  9.179  0.526E+00  0.515E+00
  9.189  0.502E+00  0.491E+00
  9.199  0.478E+00  0.467E+00
  9.209  0.453E+00  0.443E+00
  9.219  0.428E+00  0.418E+00
  9.229  0.403E+00  0.394E+00
  9.239  0.377E+00  0.369E+00
  9.249  0.352E+00  0.344E+00
  9.259  0.327E+00  0.320E+00
  9.269  0.302E+00  0.295E+00
  9.279  0.278E+00  0.272E+00
  9.289  0.254E+00  0.248E+00
  9.299  0.231E+00  0.226E+00
  9.309  0.209E+00  0.204E+00
  9.319  0.188E+00  0.184E+00
  9.329  0.168E+00  0.164E+00
  9.339  0.149E+00  0.145E+00
  9.349  0.131E+00  0.128E+00
  9.359  0.115E+00  0.112E+00
  9.369  0.998E-01  0.975E-01
  9.379  0.861E-01  0.841E-01
  9.389  0.738E-01  0.721E-01
  9.399  0.627E-01  0.612E-01
  9.409  0.529E-01  0.517E-01
  9.419  0.443E-01  0.432E-01
  9.429  0.367E-01  0.359E-01
  9.439  0.303E-01  0.295E-01
  9.449  0.247E-01  0.241E-01
  9.459  0.200E-01  0.195E-01
  9.469  0.161E-01  0.157E-01
  9.479  0.128E-01  0.125E-01
  9.489  0.101E-01  0.985E-02
  9.499  0.789E-02  0.771E-02
  9.509  0.612E-02  0.598E-02
  9.519  0.470E-02  0.459E-02
  9.529  0.358E-02  0.350E-02
  9.539  0.270E-02  0.264E-02
  9.549  0.202E-02  0.197E-02
  9.559  0.150E-02  0.146E-02
  9.569  0.110E-02  0.107E-02
  9.579  0.798E-03  0.779E-03
  9.589  0.575E-03  0.561E-03
  9.599  0.410E-03  0.400E-03
  9.609  0.290E-03  0.283E-03
  9.619  0.203E-03  0.198E-03
  9.629  0.141E-03  0.137E-03
  9.639  0.964E-04  0.941E-04
  9.649  0.656E-04  0.640E-04
  9.659  0.441E-04  0.431E-04
  9.669  0.294E-04  0.287E-04
  9.679  0.194E-04  0.189E-04
  9.689  0.127E-04  0.124E-04
  9.699  0.821E-05  0.801E-05
  9.709  0.526E-05  0.513E-05
  9.719  0.334E-05  0.326E-05
  9.729  0.209E-05  0.204E-05
  9.739  0.130E-05  0.127E-05
  9.749  0.801E-06  0.782E-06
  9.759  0.488E-06  0.476E-06
  9.769  0.294E-06  0.287E-06
  9.779  0.176E-06  0.172E-06
  9.789  0.104E-06  0.101E-06
  9.799  0.608E-07  0.593E-07
  9.809  0.352E-07  0.343E-07
  9.819  0.202E-07  0.197E-07
  9.829  0.114E-07  0.112E-07
  9.839  0.642E-08  0.627E-08
  9.849  0.357E-08  0.348E-08
  9.859  0.196E-08  0.191E-08
  9.869  0.107E-08  0.104E-08
  9.879  0.575E-09  0.561E-09
  9.889  0.307E-09  0.299E-09
  9.899  0.162E-09  0.158E-09
  9.909  0.845E-10  0.825E-10
  9.919  0.436E-10  0.426E-10
  9.929  0.223E-10  0.217E-10
  9.939  0.111E-10  0.108E-10
  9.949  0.555E-11  0.541E-11
  9.959  0.271E-11  0.265E-11
  9.969  0.131E-11  0.128E-11
  9.979  0.638E-12  0.623E-12
  9.989  0.256E-12  0.250E-12
  9.999  0.863E-13  0.841E-13
 10.009  0.251E-13  0.245E-13
 10.019  0.000E+00  0.000E+00
 10.029  0.000E+00  0.000E+00
 10.039  0.000E+00  0.000E+00
 10.049  0.000E+00  0.000E+00
 10.059  0.000E+00  0.000E+00
 10.069  0.000E+00  0.000E+00
 10.079  0.000E+00  0.000E+00
 10.089  0.000E+00  0.000E+00
 10.099  0.000E+00  0.000E+00
 10.109  0.000E+00  0.000E+00
 10.119  0.000E+00  0.000E+00
 10.129  0.000E+00  0.000E+00
 10.139  0.000E+00  0.000E+00
 10.149  0.000E+00  0.000E+00
 10.159  0.000E+00  0.000E+00
 10.169  0.000E+00  0.000E+00
 10.179  0.000E+00  0.000E+00
 10.189  0.000E+00  0.000E+00
 10.199  0.000E+00  0.000E+00
 10.209  0.000E+00  0.000E+00
 10.219  0.000E+00  0.000E+00
 10.229  0.000E+00  0.000E+00
 10.239  0.000E+00  0.000E+00
 10.249  0.000E+00  0.000E+00
 10.259  0.000E+00  0.000E+00
 10.269  0.000E+00  0.000E+00
 10.279  0.000E+00  0.000E+00
 10.289  0.000E+00  0.000E+00
 10.299  0.000E+00  0.000E+00
 10.309  0.000E+00  0.000E+00
 10.319  0.000E+00  0.000E+00
 10.329  0.000E+00  0.000E+00
 10.339  0.000E+00  0.000E+00
 10.349  0.000E+00  0.000E+00
 10.359  0.000E+00  0.000E+00
 10.369  0.102E-13  0.100E-13
 10.379  0.214E-13  0.210E-13
 10.389  0.443E-13  0.436E-13
 10.399  0.908E-13  0.894E-13
 10.409  0.184E-12  0.181E-12
 10.419  0.369E-12  0.364E-12
 10.429  0.733E-12  0.722E-12
 10.439  0.144E-11  0.142E-11
 10.449  0.280E-11  0.275E-11
 10.459  0.537E-11  0.529E-11
 10.469  0.102E-10  0.101E-10
 10.479  0.192E-10  0.189E-10
 10.489  0.357E-10  0.352E-10
 10.499  0.657E-10  0.647E-10
 10.509  0.120E-09  0.118E-09
 10.519  0.215E-09  0.212E-09
 10.529  0.384E-09  0.378E-09
 10.539  0.676E-09  0.666E-09
 10.549  0.118E-08  0.116E-08
 10.559  0.203E-08  0.200E-08
 10.569  0.347E-08  0.341E-08
 10.579  0.586E-08  0.576E-08
 10.589  0.978E-08  0.962E-08
 10.599  0.161E-07  0.159E-07
 10.609  0.264E-07  0.260E-07
 10.619  0.426E-07  0.420E-07
 10.629  0.682E-07  0.671E-07
 10.639  0.108E-06  0.106E-06
 10.649  0.169E-06  0.166E-06
 10.659  0.261E-06  0.257E-06
 10.669  0.400E-06  0.394E-06
 10.679  0.606E-06  0.597E-06
 10.689  0.908E-06  0.894E-06
 10.699  0.135E-05  0.133E-05
 10.709  0.198E-05  0.194E-05
 10.719  0.287E-05  0.282E-05
 10.729  0.411E-05  0.405E-05
 10.739  0.584E-05  0.575E-05
 10.749  0.820E-05  0.808E-05
 10.759  0.114E-04  0.112E-04
 10.769  0.157E-04  0.154E-04
 10.779  0.213E-04  0.210E-04
 10.789  0.287E-04  0.282E-04
 10.799  0.382E-04  0.376E-04
 10.809  0.503E-04  0.495E-04
 10.819  0.655E-04  0.645E-04
 10.829  0.844E-04  0.831E-04
 10.839  0.108E-03  0.106E-03
 10.849  0.136E-03  0.134E-03
 10.859  0.170E-03  0.167E-03
 10.869  0.209E-03  0.206E-03
 10.879  0.256E-03  0.252E-03
 10.889  0.310E-03  0.305E-03
 10.899  0.371E-03  0.365E-03
 10.909  0.440E-03  0.433E-03
 10.919  0.516E-03  0.508E-03
 10.929  0.600E-03  0.591E-03
 10.939  0.691E-03  0.680E-03
 10.949  0.788E-03  0.776E-03
 10.959  0.892E-03  0.878E-03
 10.969  0.100E-02  0.984E-03
 10.979  0.111E-02  0.110E-02
 10.989  0.123E-02  0.121E-02
 10.999  0.135E-02  0.133E-02
 11.009  0.148E-02  0.145E-02
 11.019  0.161E-02  0.158E-02
 11.029  0.175E-02  0.172E-02
 11.039  0.189E-02  0.186E-02
 11.049  0.205E-02  0.202E-02
 11.059  0.223E-02  0.219E-02
 11.069  0.242E-02  0.239E-02
 11.079  0.264E-02  0.260E-02
 11.089  0.290E-02  0.285E-02
 11.099  0.318E-02  0.313E-02
 11.109  0.351E-02  0.346E-02
 11.119  0.389E-02  0.383E-02
 11.129  0.431E-02  0.424E-02
 11.139  0.479E-02  0.471E-02
 11.149  0.532E-02  0.523E-02
 11.159  0.590E-02  0.581E-02
 11.169  0.653E-02  0.643E-02
 11.179  0.720E-02  0.709E-02
 11.189  0.792E-02  0.779E-02
 11.199  0.866E-02  0.852E-02
 11.209  0.942E-02  0.928E-02
 11.219  0.102E-01  0.100E-01
 11.229  0.110E-01  0.108E-01
 11.239  0.117E-01  0.116E-01
 11.249  0.125E-01  0.123E-01
 11.259  0.132E-01  0.130E-01
 11.269  0.139E-01  0.137E-01
 11.279  0.146E-01  0.144E-01
 11.289  0.153E-01  0.150E-01
 11.299  0.159E-01  0.156E-01
 11.309  0.165E-01  0.162E-01
 11.319  0.170E-01  0.168E-01
 11.329  0.176E-01  0.173E-01
 11.339  0.181E-01  0.178E-01
 11.349  0.186E-01  0.183E-01
 11.359  0.191E-01  0.188E-01
 11.369  0.195E-01  0.192E-01
 11.379  0.200E-01  0.196E-01
 11.389  0.203E-01  0.200E-01
 11.399  0.207E-01  0.204E-01
 11.409  0.210E-01  0.206E-01
 11.419  0.212E-01  0.209E-01
 11.429  0.213E-01  0.210E-01
 11.439  0.214E-01  0.211E-01
 11.449  0.214E-01  0.211E-01
 11.459  0.213E-01  0.210E-01
 11.469  0.212E-01  0.208E-01
 11.479  0.210E-01  0.206E-01
 11.489  0.207E-01  0.204E-01
 11.499  0.204E-01  0.201E-01
 11.509  0.201E-01  0.198E-01
 11.519  0.198E-01  0.195E-01
 11.529  0.196E-01  0.193E-01
 11.539  0.195E-01  0.192E-01
 11.549  0.194E-01  0.191E-01
 11.559  0.195E-01  0.192E-01
 11.569  0.197E-01  0.194E-01
 11.579  0.200E-01  0.197E-01
 11.589  0.206E-01  0.203E-01
 11.599  0.213E-01  0.210E-01
 11.609  0.223E-01  0.219E-01
 11.619  0.234E-01  0.230E-01
 11.629  0.247E-01  0.243E-01
 11.639  0.262E-01  0.258E-01
 11.649  0.279E-01  0.275E-01
 11.659  0.298E-01  0.293E-01
 11.669  0.317E-01  0.313E-01
 11.679  0.339E-01  0.333E-01
 11.689  0.360E-01  0.355E-01
 11.699  0.383E-01  0.377E-01
 11.709  0.406E-01  0.400E-01
 11.719  0.428E-01  0.422E-01
 11.729  0.451E-01  0.444E-01
 11.739  0.472E-01  0.465E-01
 11.749  0.491E-01  0.484E-01
 11.759  0.509E-01  0.502E-01
 11.769  0.525E-01  0.517E-01
 11.779  0.538E-01  0.530E-01
 11.789  0.549E-01  0.541E-01
 11.799  0.556E-01  0.548E-01
 11.809  0.560E-01  0.552E-01
 11.819  0.561E-01  0.553E-01
 11.829  0.559E-01  0.550E-01
 11.839  0.553E-01  0.545E-01
 11.849  0.544E-01  0.536E-01
 11.859  0.533E-01  0.525E-01
 11.869  0.519E-01  0.512E-01
 11.879  0.504E-01  0.496E-01
 11.889  0.487E-01  0.480E-01
 11.899  0.469E-01  0.462E-01
 11.909  0.451E-01  0.445E-01
 11.919  0.434E-01  0.428E-01
 11.929  0.418E-01  0.412E-01
 11.939  0.403E-01  0.398E-01
 11.949  0.391E-01  0.386E-01
 11.959  0.382E-01  0.377E-01
 11.969  0.376E-01  0.371E-01
 11.979  0.374E-01  0.369E-01
 11.989  0.376E-01  0.371E-01
 11.999  0.383E-01  0.377E-01
 12.009  0.393E-01  0.388E-01
 12.019  0.408E-01  0.402E-01
 12.029  0.428E-01  0.421E-01
 12.039  0.451E-01  0.444E-01
 12.049  0.478E-01  0.471E-01
 12.059  0.508E-01  0.501E-01
 12.069  0.541E-01  0.533E-01
 12.079  0.576E-01  0.568E-01
 12.089  0.613E-01  0.604E-01
 12.099  0.650E-01  0.641E-01
 12.109  0.688E-01  0.679E-01
 12.119  0.726E-01  0.716E-01
 12.129  0.762E-01  0.752E-01
 12.139  0.797E-01  0.786E-01
 12.149  0.830E-01  0.818E-01
 12.159  0.859E-01  0.847E-01
 12.169  0.885E-01  0.873E-01
 12.179  0.907E-01  0.895E-01
 12.189  0.925E-01  0.912E-01
 12.199  0.939E-01  0.926E-01
 12.209  0.948E-01  0.935E-01
 12.219  0.953E-01  0.939E-01
 12.229  0.953E-01  0.940E-01
 12.239  0.950E-01  0.936E-01
 12.249  0.943E-01  0.929E-01
 12.259  0.933E-01  0.920E-01
 12.269  0.921E-01  0.908E-01
 12.279  0.907E-01  0.895E-01
 12.289  0.893E-01  0.880E-01
 12.299  0.879E-01  0.866E-01
 12.309  0.865E-01  0.853E-01
 12.319  0.853E-01  0.841E-01
 12.329  0.843E-01  0.831E-01
 12.339  0.835E-01  0.823E-01
 12.349  0.830E-01  0.819E-01
 12.359  0.829E-01  0.817E-01
 12.369  0.830E-01  0.819E-01
 12.379  0.835E-01  0.824E-01
 12.389  0.843E-01  0.831E-01
 12.399  0.854E-01  0.842E-01
 12.409  0.866E-01  0.854E-01
 12.419  0.881E-01  0.869E-01
 12.429  0.897E-01  0.885E-01
 12.439  0.915E-01  0.902E-01
 12.449  0.933E-01  0.920E-01
 12.459  0.951E-01  0.938E-01
 12.469  0.970E-01  0.957E-01
 12.479  0.989E-01  0.975E-01
 12.489  0.101E+00  0.994E-01
 12.499  0.103E+00  0.101E+00
 12.509  0.104E+00  0.103E+00
 12.519  0.106E+00  0.105E+00
 12.529  0.108E+00  0.107E+00
 12.539  0.110E+00  0.109E+00
 12.549  0.112E+00  0.111E+00
 12.559  0.115E+00  0.113E+00
 12.569  0.117E+00  0.115E+00
 12.579  0.119E+00  0.118E+00
 12.589  0.122E+00  0.120E+00
 12.599  0.124E+00  0.122E+00
 12.609  0.127E+00  0.125E+00
 12.619  0.129E+00  0.128E+00
 12.629  0.132E+00  0.130E+00
 12.639  0.134E+00  0.133E+00
 12.649  0.137E+00  0.135E+00
 12.659  0.139E+00  0.137E+00
 12.669  0.142E+00  0.140E+00
 12.679  0.144E+00  0.142E+00
 12.689  0.146E+00  0.144E+00
 12.699  0.148E+00  0.146E+00
 12.709  0.149E+00  0.147E+00
 12.719  0.151E+00  0.149E+00
 12.729  0.153E+00  0.151E+00
 12.739  0.155E+00  0.153E+00
 12.749  0.156E+00  0.154E+00
 12.759  0.158E+00  0.156E+00
 12.769  0.160E+00  0.158E+00
 12.779  0.162E+00  0.159E+00
 12.789  0.163E+00  0.161E+00
 12.799  0.165E+00  0.163E+00
 12.809  0.167E+00  0.164E+00
 12.819  0.168E+00  0.166E+00
 12.829  0.170E+00  0.167E+00
 12.839  0.171E+00  0.168E+00
 12.849  0.172E+00  0.169E+00
 12.859  0.172E+00  0.170E+00
 12.869  0.173E+00  0.170E+00
 12.879  0.173E+00  0.170E+00
 12.889  0.172E+00  0.170E+00
 12.899  0.171E+00  0.169E+00
 12.909  0.170E+00  0.168E+00
 12.919  0.169E+00  0.167E+00
 12.929  0.168E+00  0.165E+00
 12.939  0.166E+00  0.164E+00
 12.949  0.165E+00  0.163E+00
 12.959  0.164E+00  0.162E+00
 12.969  0.163E+00  0.161E+00
 12.979  0.163E+00  0.161E+00
 12.989  0.164E+00  0.161E+00
 12.999  0.165E+00  0.163E+00
 13.009  0.167E+00  0.165E+00
 13.019  0.170E+00  0.168E+00
 13.029  0.174E+00  0.172E+00
 13.039  0.179E+00  0.177E+00
 13.049  0.186E+00  0.183E+00
 13.059  0.192E+00  0.190E+00
 13.069  0.200E+00  0.197E+00
 13.079  0.208E+00  0.205E+00
 13.089  0.217E+00  0.214E+00
 13.099  0.226E+00  0.223E+00
 13.109  0.236E+00  0.232E+00
 13.119  0.245E+00  0.241E+00
 13.129  0.254E+00  0.250E+00
 13.139  0.263E+00  0.259E+00
 13.149  0.271E+00  0.267E+00
 13.159  0.279E+00  0.274E+00
 13.169  0.286E+00  0.281E+00
 13.179  0.292E+00  0.287E+00
 13.189  0.297E+00  0.293E+00
 13.199  0.302E+00  0.297E+00
 13.209  0.306E+00  0.301E+00
 13.219  0.310E+00  0.305E+00
 13.229  0.313E+00  0.308E+00
 13.239  0.316E+00  0.311E+00
 13.249  0.319E+00  0.313E+00
 13.259  0.322E+00  0.316E+00
 13.269  0.326E+00  0.319E+00
 13.279  0.329E+00  0.322E+00
 13.289  0.334E+00  0.326E+00
 13.299  0.339E+00  0.330E+00
 13.309  0.345E+00  0.336E+00
 13.319  0.353E+00  0.343E+00
 13.329  0.362E+00  0.351E+00
 13.339  0.372E+00  0.360E+00
 13.349  0.384E+00  0.371E+00
 13.359  0.398E+00  0.384E+00
 13.369  0.413E+00  0.398E+00
 13.379  0.430E+00  0.414E+00
 13.389  0.449E+00  0.432E+00
 13.399  0.470E+00  0.451E+00
 13.409  0.492E+00  0.472E+00
 13.419  0.517E+00  0.495E+00
 13.429  0.543E+00  0.519E+00
 13.439  0.570E+00  0.545E+00
 13.449  0.599E+00  0.573E+00
 13.459  0.630E+00  0.602E+00
 13.469  0.662E+00  0.632E+00
 13.479  0.695E+00  0.664E+00
 13.489  0.729E+00  0.697E+00
 13.499  0.765E+00  0.730E+00
 13.509  0.801E+00  0.765E+00
 13.519  0.838E+00  0.800E+00
 13.529  0.875E+00  0.836E+00
 13.539  0.912E+00  0.871E+00
 13.549  0.949E+00  0.906E+00
 13.559  0.985E+00  0.941E+00
 13.569  0.102E+01  0.975E+00
 13.579  0.105E+01  0.101E+01
 13.589  0.109E+01  0.104E+01
 13.599  0.112E+01  0.107E+01
 13.609  0.115E+01  0.109E+01
 13.619  0.117E+01  0.112E+01
 13.629  0.119E+01  0.114E+01
 13.639  0.121E+01  0.116E+01
 13.649  0.123E+01  0.118E+01
 13.659  0.125E+01  0.119E+01
 13.669  0.126E+01  0.120E+01
 13.679  0.126E+01  0.120E+01
 13.689  0.127E+01  0.121E+01
 13.699  0.127E+01  0.121E+01
 13.709  0.127E+01  0.121E+01
 13.719  0.127E+01  0.121E+01
 13.729  0.127E+01  0.120E+01
 13.739  0.126E+01  0.120E+01
 13.749  0.126E+01  0.120E+01
 13.759  0.125E+01  0.119E+01
 13.769  0.125E+01  0.119E+01
 13.779  0.125E+01  0.119E+01
 13.789  0.125E+01  0.119E+01
 13.799  0.125E+01  0.119E+01
 13.809  0.126E+01  0.119E+01
 13.819  0.126E+01  0.120E+01
 13.829  0.127E+01  0.121E+01
 13.839  0.129E+01  0.122E+01
 13.849  0.130E+01  0.124E+01
 13.859  0.132E+01  0.125E+01
 13.869  0.134E+01  0.127E+01
 13.879  0.136E+01  0.129E+01
 13.889  0.138E+01  0.131E+01
 13.899  0.141E+01  0.134E+01
 13.909  0.143E+01  0.136E+01
 13.919  0.145E+01  0.138E+01
 13.929  0.147E+01  0.139E+01
 13.939  0.148E+01  0.141E+01
 13.949  0.150E+01  0.142E+01
 13.959  0.151E+01  0.143E+01
 13.969  0.151E+01  0.144E+01
 13.979  0.151E+01  0.144E+01
 13.989  0.151E+01  0.144E+01
 13.999  0.151E+01  0.143E+01
 14.009  0.150E+01  0.142E+01
 14.019  0.149E+01  0.141E+01
 14.029  0.147E+01  0.140E+01
 14.039  0.146E+01  0.138E+01
 14.049  0.144E+01  0.137E+01
 14.059  0.143E+01  0.135E+01
 14.069  0.141E+01  0.134E+01
 14.079  0.140E+01  0.133E+01
 14.089  0.139E+01  0.131E+01
 14.099  0.138E+01  0.130E+01
 14.109  0.137E+01  0.130E+01
 14.119  0.137E+01  0.129E+01
 14.129  0.137E+01  0.129E+01
 14.139  0.137E+01  0.130E+01
 14.149  0.138E+01  0.130E+01
 14.159  0.139E+01  0.131E+01
 14.169  0.141E+01  0.133E+01
 14.179  0.143E+01  0.134E+01
 14.189  0.145E+01  0.136E+01
 14.199  0.147E+01  0.138E+01
 14.209  0.149E+01  0.140E+01
 14.219  0.151E+01  0.142E+01
 14.229  0.154E+01  0.144E+01
 14.239  0.156E+01  0.146E+01
 14.249  0.158E+01  0.148E+01
 14.259  0.160E+01  0.150E+01
 14.269  0.161E+01  0.151E+01
 14.279  0.163E+01  0.153E+01
 14.289  0.164E+01  0.154E+01
 14.299  0.165E+01  0.155E+01
 14.309  0.165E+01  0.155E+01
 14.319  0.166E+01  0.155E+01
 14.329  0.166E+01  0.155E+01
 14.339  0.166E+01  0.155E+01
 14.349  0.165E+01  0.155E+01
 14.359  0.165E+01  0.154E+01
 14.369  0.165E+01  0.154E+01
 14.379  0.164E+01  0.153E+01
 14.389  0.164E+01  0.153E+01
 14.399  0.163E+01  0.153E+01
 14.409  0.163E+01  0.152E+01
 14.419  0.163E+01  0.152E+01
 14.429  0.163E+01  0.152E+01
 14.439  0.164E+01  0.152E+01
 14.449  0.164E+01  0.153E+01
 14.459  0.165E+01  0.153E+01
 14.469  0.166E+01  0.154E+01
 14.479  0.168E+01  0.155E+01
 14.489  0.169E+01  0.156E+01
 14.499  0.170E+01  0.157E+01
 14.509  0.172E+01  0.159E+01
 14.519  0.173E+01  0.160E+01
 14.529  0.175E+01  0.161E+01
 14.539  0.176E+01  0.162E+01
 14.549  0.178E+01  0.163E+01
 14.559  0.179E+01  0.164E+01
 14.569  0.180E+01  0.165E+01
 14.579  0.181E+01  0.165E+01
 14.589  0.182E+01  0.166E+01
 14.599  0.182E+01  0.166E+01
 14.609  0.183E+01  0.167E+01
 14.619  0.183E+01  0.167E+01
 14.629  0.184E+01  0.167E+01
 14.639  0.184E+01  0.167E+01
 14.649  0.184E+01  0.168E+01
 14.659  0.185E+01  0.168E+01
 14.669  0.185E+01  0.168E+01
 14.679  0.186E+01  0.168E+01
 14.689  0.186E+01  0.169E+01
 14.699  0.187E+01  0.169E+01
 14.709  0.188E+01  0.170E+01
 14.719  0.189E+01  0.171E+01
 14.729  0.190E+01  0.172E+01
 14.739  0.191E+01  0.173E+01
 14.749  0.192E+01  0.174E+01
 14.759  0.194E+01  0.175E+01
 14.769  0.195E+01  0.176E+01
 14.779  0.196E+01  0.177E+01
 14.789  0.198E+01  0.178E+01
 14.799  0.199E+01  0.179E+01
 14.809  0.200E+01  0.180E+01
 14.819  0.202E+01  0.181E+01
 14.829  0.203E+01  0.182E+01
 14.839  0.204E+01  0.183E+01
 14.849  0.205E+01  0.184E+01
 14.859  0.207E+01  0.185E+01
 14.869  0.208E+01  0.186E+01
 14.879  0.209E+01  0.186E+01
 14.889  0.210E+01  0.187E+01
 14.899  0.210E+01  0.188E+01
 14.909  0.211E+01  0.188E+01
 14.919  0.211E+01  0.188E+01
 14.929  0.211E+01  0.189E+01
 14.939  0.211E+01  0.188E+01
 14.949  0.211E+01  0.188E+01
 14.959  0.210E+01  0.187E+01
 14.969  0.209E+01  0.186E+01
 14.979  0.207E+01  0.185E+01
 14.989  0.205E+01  0.183E+01
 14.999  0.203E+01  0.181E+01
 15.009  0.201E+01  0.179E+01
 15.019  0.199E+01  0.177E+01
 15.029  0.196E+01  0.175E+01
 15.039  0.193E+01  0.173E+01
 15.049  0.191E+01  0.171E+01
 15.059  0.188E+01  0.168E+01
 15.069  0.186E+01  0.166E+01
 15.079  0.183E+01  0.164E+01
 15.089  0.181E+01  0.162E+01
 15.099  0.179E+01  0.161E+01
 15.109  0.177E+01  0.159E+01
 15.119  0.176E+01  0.158E+01
 15.129  0.175E+01  0.157E+01
 15.139  0.174E+01  0.156E+01
 15.149  0.173E+01  0.155E+01
 15.159  0.172E+01  0.155E+01
 15.169  0.171E+01  0.154E+01
 15.179  0.170E+01  0.153E+01
 15.189  0.169E+01  0.153E+01
 15.199  0.168E+01  0.152E+01
 15.209  0.167E+01  0.151E+01
 15.219  0.166E+01  0.150E+01
 15.229  0.165E+01  0.148E+01
 15.239  0.163E+01  0.147E+01
 15.249  0.162E+01  0.145E+01
 15.259  0.160E+01  0.144E+01
 15.269  0.158E+01  0.142E+01
 15.279  0.155E+01  0.140E+01
 15.289  0.153E+01  0.138E+01
 15.299  0.151E+01  0.135E+01
 15.309  0.149E+01  0.133E+01
 15.319  0.146E+01  0.131E+01
 15.329  0.144E+01  0.129E+01
 15.339  0.142E+01  0.127E+01
 15.349  0.140E+01  0.125E+01
 15.359  0.138E+01  0.123E+01
 15.369  0.136E+01  0.122E+01
 15.379  0.135E+01  0.121E+01
 15.389  0.134E+01  0.120E+01
 15.399  0.133E+01  0.119E+01
 15.409  0.133E+01  0.119E+01
 15.419  0.133E+01  0.119E+01
 15.429  0.133E+01  0.119E+01
 15.439  0.134E+01  0.120E+01
 15.449  0.135E+01  0.120E+01
 15.459  0.136E+01  0.121E+01
 15.469  0.137E+01  0.122E+01
 15.479  0.139E+01  0.124E+01
 15.489  0.140E+01  0.125E+01
 15.499  0.142E+01  0.126E+01
 15.509  0.143E+01  0.127E+01
 15.519  0.144E+01  0.128E+01
 15.529  0.145E+01  0.129E+01
 15.539  0.146E+01  0.130E+01
 15.549  0.147E+01  0.130E+01
 15.559  0.147E+01  0.131E+01
 15.569  0.147E+01  0.131E+01
 15.579  0.147E+01  0.130E+01
 15.589  0.147E+01  0.130E+01
 15.599  0.146E+01  0.129E+01
 15.609  0.144E+01  0.127E+01
 15.619  0.143E+01  0.126E+01
 15.629  0.141E+01  0.124E+01
 15.639  0.139E+01  0.122E+01
 15.649  0.137E+01  0.120E+01
 15.659  0.134E+01  0.118E+01
 15.669  0.131E+01  0.116E+01
 15.679  0.129E+01  0.113E+01
 15.689  0.126E+01  0.111E+01
 15.699  0.123E+01  0.108E+01
 15.709  0.120E+01  0.106E+01
 15.719  0.117E+01  0.103E+01
 15.729  0.114E+01  0.100E+01
 15.739  0.111E+01  0.980E+00
 15.749  0.108E+01  0.957E+00
 15.759  0.106E+01  0.935E+00
 15.769  0.103E+01  0.915E+00
 15.779  0.101E+01  0.897E+00
 15.789  0.993E+00  0.880E+00
 15.799  0.976E+00  0.865E+00
 15.809  0.960E+00  0.852E+00
 15.819  0.948E+00  0.841E+00
 15.829  0.937E+00  0.832E+00
 15.839  0.928E+00  0.825E+00
 15.849  0.922E+00  0.820E+00
 15.859  0.917E+00  0.816E+00
 15.869  0.915E+00  0.813E+00
 15.879  0.913E+00  0.812E+00
 15.889  0.913E+00  0.812E+00
 15.899  0.913E+00  0.812E+00
 15.909  0.915E+00  0.814E+00
 15.919  0.917E+00  0.815E+00
 15.929  0.920E+00  0.818E+00
 15.939  0.923E+00  0.820E+00
 15.949  0.926E+00  0.823E+00
 15.959  0.930E+00  0.827E+00
 15.969  0.934E+00  0.830E+00
 15.979  0.939E+00  0.834E+00
 15.989  0.944E+00  0.838E+00
 15.999  0.950E+00  0.843E+00
 16.009  0.956E+00  0.848E+00
 16.019  0.962E+00  0.854E+00
 16.029  0.969E+00  0.860E+00
 16.039  0.977E+00  0.867E+00
 16.049  0.985E+00  0.874E+00
 16.059  0.993E+00  0.881E+00
 16.069  0.100E+01  0.889E+00
 16.079  0.101E+01  0.897E+00
 16.089  0.102E+01  0.906E+00
 16.099  0.103E+01  0.914E+00
 16.109  0.104E+01  0.922E+00
 16.119  0.105E+01  0.931E+00
 16.129  0.106E+01  0.939E+00
 16.139  0.107E+01  0.948E+00
 16.149  0.108E+01  0.957E+00
 16.159  0.109E+01  0.965E+00
 16.169  0.110E+01  0.975E+00
 16.179  0.111E+01  0.985E+00
 16.189  0.112E+01  0.995E+00
 16.199  0.113E+01  0.101E+01
 16.209  0.114E+01  0.102E+01
 16.219  0.116E+01  0.103E+01
 16.229  0.117E+01  0.105E+01
 16.239  0.119E+01  0.106E+01
 16.249  0.121E+01  0.108E+01
 16.259  0.123E+01  0.110E+01
 16.269  0.125E+01  0.112E+01
 16.279  0.127E+01  0.114E+01
 16.289  0.130E+01  0.116E+01
 16.299  0.132E+01  0.119E+01
 16.309  0.135E+01  0.121E+01
 16.319  0.138E+01  0.124E+01
 16.329  0.141E+01  0.126E+01
 16.339  0.144E+01  0.129E+01
 16.349  0.147E+01  0.132E+01
 16.359  0.150E+01  0.134E+01
 16.369  0.153E+01  0.137E+01
 16.379  0.156E+01  0.140E+01
 16.389  0.159E+01  0.143E+01
 16.399  0.161E+01  0.145E+01
 16.409  0.164E+01  0.148E+01
 16.419  0.167E+01  0.150E+01
 16.429  0.169E+01  0.152E+01
 16.439  0.171E+01  0.154E+01
 16.449  0.173E+01  0.156E+01
 16.459  0.175E+01  0.158E+01
 16.469  0.177E+01  0.159E+01
 16.479  0.178E+01  0.161E+01
 16.489  0.180E+01  0.162E+01
 16.499  0.181E+01  0.164E+01
 16.509  0.183E+01  0.165E+01
 16.519  0.184E+01  0.166E+01
 16.529  0.185E+01  0.167E+01
 16.539  0.186E+01  0.168E+01
 16.549  0.188E+01  0.169E+01
 16.559  0.189E+01  0.170E+01
 16.569  0.190E+01  0.172E+01
 16.579  0.191E+01  0.173E+01
 16.589  0.193E+01  0.174E+01
 16.599  0.194E+01  0.175E+01
 16.609  0.196E+01  0.177E+01
 16.619  0.197E+01  0.178E+01
 16.629  0.199E+01  0.179E+01
 16.639  0.201E+01  0.181E+01
 16.649  0.202E+01  0.182E+01
 16.659  0.204E+01  0.183E+01
 16.669  0.205E+01  0.185E+01
 16.679  0.207E+01  0.186E+01
 16.689  0.209E+01  0.188E+01
 16.699  0.210E+01  0.189E+01
 16.709  0.212E+01  0.190E+01
 16.719  0.214E+01  0.192E+01
 16.729  0.215E+01  0.193E+01
 16.739  0.217E+01  0.195E+01
 16.749  0.219E+01  0.196E+01
 16.759  0.221E+01  0.198E+01
 16.769  0.223E+01  0.200E+01
 16.779  0.225E+01  0.201E+01
 16.789  0.227E+01  0.203E+01
 16.799  0.229E+01  0.205E+01
 16.809  0.231E+01  0.207E+01
 16.819  0.233E+01  0.209E+01
 16.829  0.236E+01  0.211E+01
 16.839  0.238E+01  0.213E+01
 16.849  0.241E+01  0.216E+01
 16.859  0.243E+01  0.218E+01
 16.869  0.246E+01  0.221E+01
 16.879  0.249E+01  0.223E+01
 16.889  0.252E+01  0.226E+01
 16.899  0.255E+01  0.229E+01
 16.909  0.258E+01  0.232E+01
 16.919  0.262E+01  0.235E+01
 16.929  0.266E+01  0.239E+01
 16.939  0.270E+01  0.243E+01
 16.949  0.274E+01  0.247E+01
 16.959  0.279E+01  0.251E+01
 16.969  0.284E+01  0.255E+01
 16.979  0.289E+01  0.260E+01
 16.989  0.294E+01  0.264E+01
 16.999  0.300E+01  0.269E+01
 17.009  0.305E+01  0.274E+01
 17.019  0.311E+01  0.279E+01
 17.029  0.316E+01  0.284E+01
 17.039  0.322E+01  0.289E+01
 17.049  0.327E+01  0.294E+01
 17.059  0.332E+01  0.299E+01
 17.069  0.337E+01  0.303E+01
 17.079  0.342E+01  0.308E+01
 17.089  0.346E+01  0.312E+01
 17.099  0.350E+01  0.315E+01
 17.109  0.354E+01  0.319E+01
 17.119  0.357E+01  0.322E+01
 17.129  0.361E+01  0.325E+01
 17.139  0.363E+01  0.328E+01
 17.149  0.366E+01  0.330E+01
 17.159  0.368E+01  0.333E+01
 17.169  0.370E+01  0.335E+01
 17.179  0.372E+01  0.336E+01
 17.189  0.373E+01  0.338E+01
 17.199  0.374E+01  0.339E+01
 17.209  0.375E+01  0.340E+01
 17.219  0.376E+01  0.341E+01
 17.229  0.376E+01  0.341E+01
 17.239  0.376E+01  0.341E+01
 17.249  0.375E+01  0.341E+01
 17.259  0.374E+01  0.340E+01
 17.269  0.372E+01  0.338E+01
 17.279  0.369E+01  0.336E+01
 17.289  0.366E+01  0.334E+01
 17.299  0.362E+01  0.330E+01
 17.309  0.358E+01  0.327E+01
 17.319  0.353E+01  0.322E+01
 17.329  0.347E+01  0.317E+01
 17.339  0.340E+01  0.311E+01
 17.349  0.333E+01  0.304E+01
 17.359  0.325E+01  0.297E+01
 17.369  0.316E+01  0.290E+01
 17.379  0.308E+01  0.282E+01
 17.389  0.298E+01  0.273E+01
 17.399  0.289E+01  0.265E+01
 17.409  0.279E+01  0.256E+01
 17.419  0.270E+01  0.248E+01
 17.429  0.260E+01  0.239E+01
 17.439  0.251E+01  0.230E+01
 17.449  0.241E+01  0.222E+01
 17.459  0.232E+01  0.214E+01
 17.469  0.223E+01  0.206E+01
 17.479  0.215E+01  0.198E+01
 17.489  0.206E+01  0.190E+01
 17.499  0.198E+01  0.183E+01
 17.509  0.191E+01  0.176E+01
 17.519  0.183E+01  0.169E+01
 17.529  0.176E+01  0.162E+01
 17.539  0.169E+01  0.156E+01
 17.549  0.162E+01  0.150E+01
 17.559  0.156E+01  0.144E+01
 17.569  0.149E+01  0.138E+01
 17.579  0.143E+01  0.132E+01
 17.589  0.137E+01  0.127E+01
 17.599  0.131E+01  0.121E+01
 17.609  0.126E+01  0.116E+01
 17.619  0.120E+01  0.111E+01
 17.629  0.115E+01  0.105E+01
 17.639  0.109E+01  0.101E+01
 17.649  0.104E+01  0.958E+00
 17.659  0.992E+00  0.911E+00
 17.669  0.944E+00  0.866E+00
 17.679  0.898E+00  0.823E+00
 17.689  0.854E+00  0.782E+00
 17.699  0.812E+00  0.743E+00
 17.709  0.772E+00  0.705E+00
 17.719  0.734E+00  0.669E+00
 17.729  0.698E+00  0.636E+00
 17.739  0.664E+00  0.605E+00
 17.749  0.633E+00  0.575E+00
 17.759  0.604E+00  0.548E+00
 17.769  0.578E+00  0.524E+00
 17.779  0.554E+00  0.501E+00
 17.789  0.533E+00  0.482E+00
 17.799  0.515E+00  0.464E+00
 17.809  0.499E+00  0.450E+00
 17.819  0.487E+00  0.438E+00
 17.829  0.477E+00  0.428E+00
 17.839  0.471E+00  0.422E+00
 17.849  0.467E+00  0.418E+00
 17.859  0.467E+00  0.418E+00
 17.869  0.470E+00  0.420E+00
 17.879  0.477E+00  0.425E+00
 17.889  0.486E+00  0.432E+00
 17.899  0.499E+00  0.442E+00
 17.909  0.514E+00  0.455E+00
 17.919  0.532E+00  0.471E+00
 17.929  0.553E+00  0.489E+00
 17.939  0.577E+00  0.509E+00
 17.949  0.603E+00  0.531E+00
 17.959  0.631E+00  0.555E+00
 17.969  0.660E+00  0.580E+00
 17.979  0.691E+00  0.607E+00
 17.989  0.723E+00  0.634E+00
 17.999  0.756E+00  0.662E+00
 18.009  0.789E+00  0.691E+00
 18.019  0.822E+00  0.719E+00
 18.029  0.855E+00  0.747E+00
 18.039  0.887E+00  0.775E+00
 18.049  0.917E+00  0.801E+00
 18.059  0.946E+00  0.826E+00
 18.069  0.974E+00  0.850E+00
 18.079  0.999E+00  0.872E+00
 18.089  0.102E+01  0.892E+00
 18.099  0.104E+01  0.909E+00
 18.109  0.106E+01  0.925E+00
 18.119  0.108E+01  0.939E+00
 18.129  0.109E+01  0.950E+00
 18.139  0.110E+01  0.959E+00
 18.149  0.111E+01  0.966E+00
 18.159  0.112E+01  0.972E+00
 18.169  0.112E+01  0.975E+00
 18.179  0.113E+01  0.977E+00
 18.189  0.113E+01  0.978E+00
 18.199  0.113E+01  0.977E+00
 18.209  0.113E+01  0.975E+00
 18.219  0.113E+01  0.972E+00
 18.229  0.113E+01  0.969E+00
 18.239  0.112E+01  0.965E+00
 18.249  0.112E+01  0.961E+00
 18.259  0.112E+01  0.956E+00
 18.269  0.111E+01  0.952E+00
 18.279  0.111E+01  0.948E+00
 18.289  0.111E+01  0.945E+00
 18.299  0.110E+01  0.942E+00
 18.309  0.110E+01  0.940E+00
 18.319  0.110E+01  0.940E+00
 18.329  0.111E+01  0.940E+00
 18.339  0.111E+01  0.942E+00
 18.349  0.112E+01  0.946E+00
 18.359  0.112E+01  0.951E+00
 18.369  0.113E+01  0.958E+00
 18.379  0.114E+01  0.966E+00
 18.389  0.116E+01  0.976E+00
 18.399  0.117E+01  0.988E+00
 18.409  0.119E+01  0.100E+01
 18.419  0.121E+01  0.102E+01
 18.429  0.123E+01  0.103E+01
 18.439  0.125E+01  0.105E+01
 18.449  0.127E+01  0.107E+01
 18.459  0.130E+01  0.109E+01
 18.469  0.132E+01  0.111E+01
 18.479  0.135E+01  0.113E+01
 18.489  0.138E+01  0.115E+01
 18.499  0.141E+01  0.118E+01
 18.509  0.144E+01  0.120E+01
 18.519  0.147E+01  0.123E+01
 18.529  0.150E+01  0.126E+01
 18.539  0.154E+01  0.128E+01
 18.549  0.158E+01  0.131E+01
 18.559  0.162E+01  0.134E+01
 18.569  0.166E+01  0.138E+01
 18.579  0.170E+01  0.141E+01
 18.589  0.175E+01  0.145E+01
 18.599  0.179E+01  0.149E+01
 18.609  0.184E+01  0.153E+01
 18.619  0.189E+01  0.157E+01
 18.629  0.195E+01  0.161E+01
 18.639  0.200E+01  0.165E+01
 18.649  0.205E+01  0.170E+01
 18.659  0.211E+01  0.174E+01
 18.669  0.217E+01  0.179E+01
 18.679  0.222E+01  0.184E+01
 18.689  0.228E+01  0.188E+01
 18.699  0.234E+01  0.193E+01
 18.709  0.239E+01  0.197E+01
 18.719  0.245E+01  0.202E+01
 18.729  0.250E+01  0.206E+01
 18.739  0.255E+01  0.210E+01
 18.749  0.260E+01  0.214E+01
 18.759  0.265E+01  0.218E+01
 18.769  0.269E+01  0.221E+01
 18.779  0.273E+01  0.225E+01
 18.789  0.277E+01  0.228E+01
 18.799  0.280E+01  0.230E+01
 18.809  0.284E+01  0.233E+01
 18.819  0.286E+01  0.235E+01
 18.829  0.289E+01  0.237E+01
 18.839  0.291E+01  0.238E+01
 18.849  0.292E+01  0.240E+01
 18.859  0.294E+01  0.241E+01
 18.869  0.295E+01  0.242E+01
 18.879  0.297E+01  0.243E+01
 18.889  0.298E+01  0.243E+01
 18.899  0.299E+01  0.244E+01
 18.909  0.300E+01  0.245E+01
 18.919  0.302E+01  0.246E+01
 18.929  0.303E+01  0.247E+01
 18.939  0.305E+01  0.249E+01
 18.949  0.307E+01  0.250E+01
 18.959  0.309E+01  0.252E+01
 18.969  0.311E+01  0.253E+01
 18.979  0.314E+01  0.255E+01
 18.989  0.316E+01  0.258E+01
 18.999  0.319E+01  0.260E+01
 19.009  0.321E+01  0.262E+01
 19.019  0.324E+01  0.264E+01
 19.029  0.326E+01  0.266E+01
 19.039  0.328E+01  0.268E+01
 19.049  0.330E+01  0.269E+01
 19.059  0.331E+01  0.270E+01
 19.069  0.332E+01  0.271E+01
 19.079  0.332E+01  0.272E+01
 19.089  0.332E+01  0.272E+01
 19.099  0.331E+01  0.271E+01
 19.109  0.330E+01  0.271E+01
 19.119  0.328E+01  0.270E+01
 19.129  0.326E+01  0.268E+01
 19.139  0.324E+01  0.267E+01
 19.149  0.322E+01  0.265E+01
 19.159  0.319E+01  0.263E+01
 19.169  0.316E+01  0.261E+01
 19.179  0.313E+01  0.259E+01
 19.189  0.310E+01  0.256E+01
 19.199  0.306E+01  0.254E+01
 19.209  0.303E+01  0.252E+01
 19.219  0.300E+01  0.250E+01
 19.229  0.298E+01  0.248E+01
 19.239  0.295E+01  0.246E+01
 19.249  0.292E+01  0.244E+01
 19.259  0.290E+01  0.242E+01
 19.269  0.288E+01  0.241E+01
 19.279  0.286E+01  0.239E+01
 19.289  0.284E+01  0.238E+01
 19.299  0.282E+01  0.237E+01
 19.309  0.280E+01  0.236E+01
 19.319  0.279E+01  0.235E+01
 19.329  0.277E+01  0.234E+01
 19.339  0.276E+01  0.233E+01
 19.349  0.274E+01  0.232E+01
 19.359  0.273E+01  0.231E+01
 19.369  0.272E+01  0.230E+01
 19.379  0.270E+01  0.228E+01
 19.389  0.268E+01  0.227E+01
 19.399  0.266E+01  0.226E+01
 19.409  0.264E+01  0.224E+01
 19.419  0.262E+01  0.222E+01
 19.429  0.260E+01  0.220E+01
 19.439  0.257E+01  0.218E+01
 19.449  0.254E+01  0.216E+01
 19.459  0.251E+01  0.213E+01
 19.469  0.248E+01  0.210E+01
 19.479  0.244E+01  0.207E+01
 19.489  0.240E+01  0.204E+01
 19.499  0.237E+01  0.201E+01
 19.509  0.233E+01  0.197E+01
 19.519  0.229E+01  0.194E+01
 19.529  0.225E+01  0.191E+01
 19.539  0.221E+01  0.188E+01
 19.549  0.218E+01  0.184E+01
 19.559  0.214E+01  0.181E+01
 19.569  0.211E+01  0.178E+01
 19.579  0.208E+01  0.176E+01
 19.589  0.205E+01  0.173E+01
 19.599  0.202E+01  0.171E+01
 19.609  0.200E+01  0.169E+01
 19.619  0.198E+01  0.167E+01
 19.629  0.196E+01  0.166E+01
 19.639  0.194E+01  0.165E+01
 19.649  0.193E+01  0.163E+01
 19.659  0.192E+01  0.163E+01
 19.669  0.191E+01  0.162E+01
 19.679  0.190E+01  0.161E+01
 19.689  0.189E+01  0.161E+01
 19.699  0.188E+01  0.160E+01
 19.709  0.187E+01  0.160E+01
 19.719  0.187E+01  0.159E+01
 19.729  0.186E+01  0.159E+01
 19.739  0.185E+01  0.158E+01
 19.749  0.184E+01  0.158E+01
 19.759  0.184E+01  0.157E+01
 19.769  0.183E+01  0.157E+01
 19.779  0.182E+01  0.156E+01
 19.789  0.181E+01  0.155E+01
 19.799  0.180E+01  0.154E+01
 19.809  0.178E+01  0.154E+01
 19.819  0.177E+01  0.152E+01
 19.829  0.176E+01  0.151E+01
 19.839  0.174E+01  0.150E+01
 19.849  0.173E+01  0.149E+01
 19.859  0.171E+01  0.147E+01
 19.869  0.169E+01  0.146E+01
 19.879  0.167E+01  0.144E+01
 19.889  0.165E+01  0.143E+01
 19.899  0.163E+01  0.141E+01
 19.909  0.161E+01  0.139E+01
 19.919  0.159E+01  0.137E+01
 19.929  0.157E+01  0.135E+01
 19.939  0.154E+01  0.134E+01
 19.949  0.152E+01  0.132E+01
 19.959  0.150E+01  0.130E+01
 19.969  0.149E+01  0.128E+01
 19.979  0.147E+01  0.127E+01
 19.989  0.146E+01  0.126E+01
 19.999  0.145E+01  0.124E+01
 20.009  0.144E+01  0.124E+01
 20.019  0.143E+01  0.123E+01
 20.029  0.143E+01  0.123E+01
 20.039  0.143E+01  0.122E+01
 20.049  0.144E+01  0.123E+01
 20.059  0.145E+01  0.123E+01
 20.069  0.146E+01  0.124E+01
 20.079  0.148E+01  0.124E+01
 20.089  0.149E+01  0.125E+01
 20.099  0.151E+01  0.127E+01
 20.109  0.153E+01  0.128E+01
 20.119  0.155E+01  0.129E+01
 20.129  0.158E+01  0.131E+01
 20.139  0.160E+01  0.132E+01
 20.149  0.162E+01  0.133E+01
 20.159  0.164E+01  0.135E+01
 20.169  0.166E+01  0.136E+01
 20.179  0.168E+01  0.137E+01
 20.189  0.169E+01  0.137E+01
 20.199  0.170E+01  0.138E+01
 20.209  0.171E+01  0.139E+01
 20.219  0.172E+01  0.139E+01
 20.229  0.173E+01  0.139E+01
 20.239  0.173E+01  0.139E+01
 20.249  0.174E+01  0.139E+01
 20.259  0.174E+01  0.138E+01
 20.269  0.174E+01  0.138E+01
 20.279  0.174E+01  0.138E+01
 20.289  0.173E+01  0.137E+01
 20.299  0.173E+01  0.136E+01
 20.309  0.173E+01  0.136E+01
 20.319  0.172E+01  0.135E+01
 20.329  0.172E+01  0.134E+01
 20.339  0.171E+01  0.133E+01
 20.349  0.171E+01  0.133E+01
 20.359  0.170E+01  0.132E+01
 20.369  0.169E+01  0.131E+01
 20.379  0.168E+01  0.130E+01
 20.389  0.167E+01  0.129E+01
 20.399  0.166E+01  0.127E+01
 20.409  0.165E+01  0.126E+01
 20.419  0.164E+01  0.125E+01
 20.429  0.163E+01  0.124E+01
 20.439  0.162E+01  0.123E+01
 20.449  0.161E+01  0.122E+01
 20.459  0.160E+01  0.120E+01
 20.469  0.159E+01  0.119E+01
 20.479  0.158E+01  0.118E+01
 20.489  0.157E+01  0.117E+01
 20.499  0.156E+01  0.116E+01
 20.509  0.155E+01  0.115E+01
 20.519  0.154E+01  0.114E+01
 20.529  0.153E+01  0.113E+01
 20.539  0.152E+01  0.112E+01
 20.549  0.151E+01  0.111E+01
 20.559  0.150E+01  0.110E+01
 20.569  0.149E+01  0.110E+01
 20.579  0.148E+01  0.109E+01
 20.589  0.148E+01  0.108E+01
 20.599  0.147E+01  0.108E+01
 20.609  0.146E+01  0.107E+01
 20.619  0.146E+01  0.107E+01
 20.629  0.145E+01  0.106E+01
 20.639  0.145E+01  0.106E+01
 20.649  0.145E+01  0.105E+01
 20.659  0.144E+01  0.105E+01
 20.669  0.145E+01  0.105E+01
 20.679  0.145E+01  0.105E+01
 20.689  0.145E+01  0.105E+01
 20.699  0.146E+01  0.106E+01
 20.709  0.147E+01  0.106E+01
 20.719  0.148E+01  0.107E+01
 20.729  0.149E+01  0.107E+01
 20.739  0.150E+01  0.108E+01
 20.749  0.151E+01  0.108E+01
 20.759  0.152E+01  0.109E+01
 20.769  0.154E+01  0.110E+01
 20.779  0.155E+01  0.111E+01
 20.789  0.156E+01  0.111E+01
 20.799  0.157E+01  0.112E+01
 20.809  0.158E+01  0.112E+01
 20.819  0.158E+01  0.112E+01
 20.829  0.158E+01  0.112E+01
 20.839  0.159E+01  0.113E+01
 20.849  0.158E+01  0.112E+01
 20.859  0.158E+01  0.112E+01
 20.869  0.158E+01  0.112E+01
 20.879  0.157E+01  0.111E+01
 20.889  0.156E+01  0.111E+01
 20.899  0.155E+01  0.110E+01
 20.909  0.154E+01  0.109E+01
 20.919  0.153E+01  0.109E+01
 20.929  0.152E+01  0.108E+01
 20.939  0.151E+01  0.108E+01
 20.949  0.150E+01  0.107E+01
 20.959  0.149E+01  0.106E+01
 20.969  0.149E+01  0.106E+01
 20.979  0.148E+01  0.106E+01
 20.989  0.147E+01  0.105E+01
 20.999  0.147E+01  0.105E+01
 21.009  0.147E+01  0.105E+01
 21.019  0.146E+01  0.105E+01
 21.029  0.146E+01  0.105E+01
 21.039  0.146E+01  0.105E+01
 21.049  0.146E+01  0.105E+01
 21.059  0.146E+01  0.105E+01
 21.069  0.146E+01  0.105E+01
 21.079  0.146E+01  0.105E+01
 21.089  0.146E+01  0.104E+01
 21.099  0.146E+01  0.104E+01
 21.109  0.146E+01  0.104E+01
 21.119  0.146E+01  0.104E+01
 21.129  0.146E+01  0.104E+01
 21.139  0.146E+01  0.104E+01
 21.149  0.146E+01  0.104E+01
 21.159  0.146E+01  0.104E+01
 21.169  0.146E+01  0.104E+01
 21.179  0.147E+01  0.104E+01
 21.189  0.147E+01  0.104E+01
 21.199  0.147E+01  0.103E+01
 21.209  0.148E+01  0.103E+01
 21.219  0.148E+01  0.103E+01
 21.229  0.149E+01  0.103E+01
 21.239  0.149E+01  0.103E+01
 21.249  0.149E+01  0.103E+01
 21.259  0.149E+01  0.103E+01
 21.269  0.150E+01  0.103E+01
 21.279  0.150E+01  0.103E+01
 21.289  0.150E+01  0.103E+01
 21.299  0.150E+01  0.103E+01
 21.309  0.149E+01  0.102E+01
 21.319  0.149E+01  0.102E+01
 21.329  0.149E+01  0.102E+01
 21.339  0.148E+01  0.101E+01
 21.349  0.147E+01  0.101E+01
 21.359  0.147E+01  0.101E+01
 21.369  0.146E+01  0.100E+01
 21.379  0.146E+01  0.998E+00
 21.389  0.145E+01  0.994E+00
 21.399  0.145E+01  0.992E+00
 21.409  0.144E+01  0.989E+00
 21.419  0.144E+01  0.987E+00
 21.429  0.143E+01  0.986E+00
 21.439  0.143E+01  0.986E+00
 21.449  0.143E+01  0.986E+00
 21.459  0.143E+01  0.986E+00
 21.469  0.143E+01  0.987E+00
 21.479  0.143E+01  0.988E+00
 21.489  0.143E+01  0.989E+00
 21.499  0.143E+01  0.990E+00
 21.509  0.143E+01  0.991E+00
 21.519  0.143E+01  0.991E+00
 21.529  0.143E+01  0.990E+00
 21.539  0.143E+01  0.989E+00
 21.549  0.143E+01  0.986E+00
 21.559  0.142E+01  0.983E+00
 21.569  0.141E+01  0.979E+00
 21.579  0.140E+01  0.974E+00
 21.589  0.139E+01  0.967E+00
 21.599  0.138E+01  0.961E+00
 21.609  0.137E+01  0.953E+00
 21.619  0.136E+01  0.945E+00
 21.629  0.134E+01  0.936E+00
 21.639  0.133E+01  0.928E+00
 21.649  0.131E+01  0.919E+00
 21.659  0.130E+01  0.910E+00
 21.669  0.128E+01  0.901E+00
 21.679  0.127E+01  0.892E+00
 21.689  0.126E+01  0.884E+00
 21.699  0.124E+01  0.876E+00
 21.709  0.123E+01  0.868E+00
 21.719  0.122E+01  0.861E+00
 21.729  0.121E+01  0.854E+00
 21.739  0.119E+01  0.848E+00
 21.749  0.118E+01  0.843E+00
 21.759  0.118E+01  0.838E+00
 21.769  0.117E+01  0.833E+00
 21.779  0.116E+01  0.830E+00
 21.789  0.116E+01  0.827E+00
 21.799  0.115E+01  0.825E+00
 21.809  0.115E+01  0.824E+00
 21.819  0.115E+01  0.825E+00
 21.829  0.115E+01  0.826E+00
 21.839  0.115E+01  0.828E+00
 21.849  0.115E+01  0.832E+00
 21.859  0.116E+01  0.836E+00
 21.869  0.116E+01  0.841E+00
 21.879  0.117E+01  0.846E+00
 21.889  0.118E+01  0.852E+00
 21.899  0.118E+01  0.858E+00
 21.909  0.119E+01  0.864E+00
 21.919  0.120E+01  0.869E+00
 21.929  0.121E+01  0.875E+00
 21.939  0.121E+01  0.879E+00
 21.949  0.122E+01  0.883E+00
 21.959  0.123E+01  0.887E+00
 21.969  0.123E+01  0.889E+00
 21.979  0.123E+01  0.891E+00
 21.989  0.124E+01  0.892E+00
 21.999  0.124E+01  0.893E+00
 22.009  0.124E+01  0.893E+00
 22.019  0.124E+01  0.894E+00
 22.029  0.124E+01  0.894E+00
 22.039  0.125E+01  0.895E+00
 22.049  0.125E+01  0.896E+00
 22.059  0.125E+01  0.898E+00
 22.069  0.126E+01  0.900E+00
 22.079  0.126E+01  0.904E+00
 22.089  0.127E+01  0.909E+00
 22.099  0.128E+01  0.915E+00
 22.109  0.129E+01  0.923E+00
 22.119  0.130E+01  0.932E+00
 22.129  0.132E+01  0.942E+00
 22.139  0.133E+01  0.954E+00
 22.149  0.135E+01  0.968E+00
 22.159  0.137E+01  0.983E+00
 22.169  0.139E+01  0.998E+00
 22.179  0.141E+01  0.102E+01
 22.189  0.144E+01  0.103E+01
 22.199  0.146E+01  0.105E+01
 22.209  0.148E+01  0.107E+01
 22.219  0.151E+01  0.109E+01
 22.229  0.153E+01  0.110E+01
 22.239  0.155E+01  0.112E+01
 22.249  0.157E+01  0.113E+01
 22.259  0.159E+01  0.115E+01
 22.269  0.160E+01  0.116E+01
 22.279  0.162E+01  0.117E+01
 22.289  0.163E+01  0.118E+01
 22.299  0.163E+01  0.118E+01
 22.309  0.164E+01  0.118E+01
 22.319  0.164E+01  0.118E+01
 22.329  0.164E+01  0.118E+01
 22.339  0.163E+01  0.118E+01
 22.349  0.163E+01  0.117E+01
 22.359  0.162E+01  0.117E+01
 22.369  0.161E+01  0.116E+01
 22.379  0.159E+01  0.115E+01
 22.389  0.158E+01  0.113E+01
 22.399  0.156E+01  0.112E+01
 22.409  0.154E+01  0.110E+01
 22.419  0.151E+01  0.108E+01
 22.429  0.149E+01  0.107E+01
 22.439  0.146E+01  0.104E+01
 22.449  0.143E+01  0.102E+01
 22.459  0.140E+01  0.999E+00
 22.469  0.137E+01  0.975E+00
 22.479  0.134E+01  0.949E+00
 22.489  0.130E+01  0.923E+00
 22.499  0.127E+01  0.895E+00
 22.509  0.123E+01  0.868E+00
 22.519  0.119E+01  0.840E+00
 22.529  0.115E+01  0.812E+00
 22.539  0.112E+01  0.784E+00
 22.549  0.108E+01  0.756E+00
 22.559  0.104E+01  0.729E+00
 22.569  0.100E+01  0.703E+00
 22.579  0.970E+00  0.678E+00
 22.589  0.936E+00  0.653E+00
 22.599  0.904E+00  0.630E+00
 22.609  0.873E+00  0.607E+00
 22.619  0.843E+00  0.586E+00
 22.629  0.814E+00  0.565E+00
 22.639  0.786E+00  0.545E+00
 22.649  0.759E+00  0.526E+00
 22.659  0.732E+00  0.507E+00
 22.669  0.706E+00  0.489E+00
 22.679  0.681E+00  0.471E+00
 22.689  0.655E+00  0.453E+00
 22.699  0.630E+00  0.435E+00
 22.709  0.604E+00  0.417E+00
 22.719  0.578E+00  0.399E+00
 22.729  0.552E+00  0.381E+00
 22.739  0.526E+00  0.364E+00
 22.749  0.500E+00  0.346E+00
 22.759  0.474E+00  0.328E+00
 22.769  0.448E+00  0.310E+00
 22.779  0.422E+00  0.292E+00
 22.789  0.397E+00  0.275E+00
 22.799  0.372E+00  0.258E+00
 22.809  0.347E+00  0.241E+00
 22.819  0.324E+00  0.225E+00
 22.829  0.301E+00  0.210E+00
 22.839  0.279E+00  0.195E+00
 22.849  0.259E+00  0.181E+00
 22.859  0.239E+00  0.167E+00
 22.869  0.220E+00  0.154E+00
 22.879  0.203E+00  0.142E+00
 22.889  0.186E+00  0.130E+00
 22.899  0.171E+00  0.120E+00
 22.909  0.156E+00  0.109E+00
 22.919  0.143E+00  0.999E-01
 22.929  0.130E+00  0.910E-01
 22.939  0.118E+00  0.828E-01
 22.949  0.108E+00  0.752E-01
 22.959  0.977E-01  0.681E-01
 22.969  0.885E-01  0.616E-01
 22.979  0.800E-01  0.556E-01
 22.989  0.722E-01  0.501E-01
 22.999  0.651E-01  0.450E-01
 23.009  0.585E-01  0.404E-01
 23.019  0.525E-01  0.363E-01
 23.029  0.470E-01  0.325E-01
 23.039  0.421E-01  0.291E-01
 23.049  0.376E-01  0.261E-01
 23.059  0.336E-01  0.234E-01
 23.069  0.300E-01  0.210E-01
 23.079  0.267E-01  0.188E-01
 23.089  0.239E-01  0.169E-01
 23.099  0.213E-01  0.153E-01
 23.109  0.190E-01  0.138E-01
 23.119  0.169E-01  0.124E-01
 23.129  0.151E-01  0.113E-01
 23.139  0.135E-01  0.102E-01
 23.149  0.120E-01  0.922E-02
 23.159  0.107E-01  0.834E-02
 23.169  0.957E-02  0.754E-02
 23.179  0.851E-02  0.679E-02
 23.189  0.755E-02  0.610E-02
 23.199  0.668E-02  0.546E-02
 23.209  0.588E-02  0.487E-02
 23.219  0.516E-02  0.431E-02
 23.229  0.450E-02  0.379E-02
 23.239  0.390E-02  0.332E-02
 23.249  0.336E-02  0.288E-02
 23.259  0.288E-02  0.248E-02
 23.269  0.244E-02  0.212E-02
 23.279  0.206E-02  0.179E-02
 23.289  0.172E-02  0.151E-02
 23.299  0.143E-02  0.125E-02
 23.309  0.117E-02  0.103E-02
 23.319  0.954E-03  0.842E-03
 23.329  0.769E-03  0.680E-03
 23.339  0.614E-03  0.544E-03
 23.349  0.486E-03  0.431E-03
 23.359  0.380E-03  0.338E-03
 23.369  0.295E-03  0.262E-03
 23.379  0.226E-03  0.202E-03
 23.389  0.172E-03  0.153E-03
 23.399  0.129E-03  0.115E-03
 23.409  0.961E-04  0.859E-04
 23.419  0.707E-04  0.633E-04
 23.429  0.515E-04  0.461E-04
 23.439  0.372E-04  0.333E-04
 23.449  0.265E-04  0.237E-04
 23.459  0.187E-04  0.168E-04
 23.469  0.131E-04  0.117E-04
 23.479  0.903E-05  0.810E-05
 23.489  0.618E-05  0.554E-05
 23.499  0.418E-05  0.375E-05
 23.509  0.280E-05  0.251E-05
 23.519  0.185E-05  0.166E-05
 23.529  0.121E-05  0.109E-05
 23.539  0.786E-06  0.705E-06
 23.549  0.504E-06  0.452E-06
