# E (eV)  dos(E)    pdos(E)
 -8.550  0.163E-06  0.162E-06
 -8.540  0.259E-06  0.258E-06
 -8.530  0.408E-06  0.406E-06
 -8.520  0.637E-06  0.633E-06
 -8.510  0.984E-06  0.978E-06
 -8.500  0.151E-05  0.150E-05
 -8.490  0.228E-05  0.227E-05
 -8.480  0.342E-05  0.340E-05
 -8.470  0.509E-05  0.506E-05
 -8.460  0.749E-05  0.745E-05
 -8.450  0.109E-04  0.109E-04
 -8.440  0.158E-04  0.157E-04
 -8.430  0.226E-04  0.225E-04
 -8.420  0.320E-04  0.318E-04
 -8.410  0.450E-04  0.447E-04
 -8.400  0.626E-04  0.622E-04
 -8.390  0.863E-04  0.858E-04
 -8.380  0.118E-03  0.117E-03
 -8.370  0.159E-03  0.158E-03
 -8.360  0.214E-03  0.212E-03
 -8.350  0.283E-03  0.282E-03
 -8.340  0.373E-03  0.370E-03
 -8.330  0.486E-03  0.483E-03
 -8.320  0.627E-03  0.623E-03
 -8.310  0.803E-03  0.798E-03
 -8.300  0.102E-02  0.101E-02
 -8.290  0.128E-02  0.127E-02
 -8.280  0.159E-02  0.158E-02
 -8.270  0.197E-02  0.195E-02
 -8.260  0.241E-02  0.239E-02
 -8.250  0.292E-02  0.290E-02
 -8.240  0.351E-02  0.349E-02
 -8.230  0.419E-02  0.416E-02
 -8.220  0.496E-02  0.493E-02
 -8.210  0.582E-02  0.578E-02
 -8.200  0.678E-02  0.673E-02
 -8.190  0.784E-02  0.779E-02
 -8.180  0.899E-02  0.893E-02
 -8.170  0.102E-01  0.102E-01
 -8.160  0.116E-01  0.115E-01
 -8.150  0.130E-01  0.130E-01
 -8.140  0.146E-01  0.145E-01
 -8.130  0.162E-01  0.161E-01
 -8.120  0.178E-01  0.177E-01
 -8.110  0.196E-01  0.195E-01
 -8.100  0.214E-01  0.212E-01
 -8.090  0.232E-01  0.231E-01
 -8.080  0.251E-01  0.249E-01
 -8.070  0.270E-01  0.268E-01
 -8.060  0.289E-01  0.287E-01
 -8.050  0.308E-01  0.306E-01
 -8.040  0.327E-01  0.324E-01
 -8.030  0.345E-01  0.343E-01
 -8.020  0.363E-01  0.361E-01
 -8.010  0.381E-01  0.378E-01
 -8.000  0.398E-01  0.395E-01
 -7.990  0.414E-01  0.411E-01
 -7.980  0.429E-01  0.426E-01
 -7.970  0.444E-01  0.441E-01
 -7.960  0.458E-01  0.455E-01
 -7.950  0.471E-01  0.468E-01
 -7.940  0.484E-01  0.480E-01
 -7.930  0.496E-01  0.493E-01
 -7.920  0.508E-01  0.504E-01
 -7.910  0.519E-01  0.516E-01
 -7.900  0.531E-01  0.528E-01
 -7.890  0.543E-01  0.539E-01
 -7.880  0.555E-01  0.551E-01
 -7.870  0.568E-01  0.564E-01
 -7.860  0.581E-01  0.577E-01
 -7.850  0.594E-01  0.590E-01
 -7.840  0.608E-01  0.604E-01
 -7.830  0.622E-01  0.618E-01
 -7.820  0.637E-01  0.633E-01
 -7.810  0.651E-01  0.647E-01
 -7.800  0.665E-01  0.661E-01
 -7.790  0.679E-01  0.674E-01
 -7.780  0.692E-01  0.687E-01
 -7.770  0.704E-01  0.699E-01
 -7.760  0.714E-01  0.709E-01
 -7.750  0.724E-01  0.719E-01
 -7.740  0.732E-01  0.727E-01
 -7.730  0.738E-01  0.733E-01
 -7.720  0.743E-01  0.738E-01
 -7.710  0.747E-01  0.742E-01
 -7.700  0.750E-01  0.744E-01
 -7.690  0.751E-01  0.746E-01
 -7.680  0.752E-01  0.747E-01
 -7.670  0.753E-01  0.748E-01
 -7.660  0.754E-01  0.749E-01
 -7.650  0.756E-01  0.751E-01
 -7.640  0.758E-01  0.753E-01
 -7.630  0.762E-01  0.757E-01
 -7.620  0.767E-01  0.762E-01
 -7.610  0.775E-01  0.769E-01
 -7.600  0.784E-01  0.778E-01
 -7.590  0.795E-01  0.790E-01
 -7.580  0.808E-01  0.803E-01
 -7.570  0.824E-01  0.818E-01
 -7.560  0.841E-01  0.835E-01
 -7.550  0.859E-01  0.853E-01
 -7.540  0.879E-01  0.873E-01
 -7.530  0.899E-01  0.893E-01
 -7.520  0.919E-01  0.912E-01
 -7.510  0.938E-01  0.931E-01
 -7.500  0.956E-01  0.949E-01
 -7.490  0.972E-01  0.966E-01
 -7.480  0.987E-01  0.980E-01
 -7.470  0.999E-01  0.992E-01
 -7.460  0.101E+00  0.100E+00
 -7.450  0.101E+00  0.101E+00
 -7.440  0.102E+00  0.101E+00
 -7.430  0.102E+00  0.101E+00
 -7.420  0.102E+00  0.101E+00
 -7.410  0.101E+00  0.100E+00
 -7.400  0.101E+00  0.998E-01
 -7.390  0.997E-01  0.990E-01
 -7.380  0.989E-01  0.982E-01
 -7.370  0.979E-01  0.972E-01
 -7.360  0.970E-01  0.963E-01
 -7.350  0.961E-01  0.954E-01
 -7.340  0.952E-01  0.946E-01
 -7.330  0.946E-01  0.939E-01
 -7.320  0.941E-01  0.934E-01
 -7.310  0.938E-01  0.931E-01
 -7.300  0.938E-01  0.931E-01
 -7.290  0.941E-01  0.934E-01
 -7.280  0.946E-01  0.940E-01
 -7.270  0.955E-01  0.948E-01
 -7.260  0.967E-01  0.960E-01
 -7.250  0.982E-01  0.975E-01
 -7.240  0.100E+00  0.993E-01
 -7.230  0.102E+00  0.101E+00
 -7.220  0.104E+00  0.104E+00
 -7.210  0.107E+00  0.106E+00
 -7.200  0.109E+00  0.109E+00
 -7.190  0.112E+00  0.111E+00
 -7.180  0.115E+00  0.114E+00
 -7.170  0.118E+00  0.117E+00
 -7.160  0.120E+00  0.119E+00
 -7.150  0.123E+00  0.122E+00
 -7.140  0.125E+00  0.124E+00
 -7.130  0.127E+00  0.126E+00
 -7.120  0.129E+00  0.128E+00
 -7.110  0.130E+00  0.129E+00
 -7.100  0.131E+00  0.130E+00
 -7.090  0.131E+00  0.130E+00
 -7.080  0.131E+00  0.130E+00
 -7.070  0.131E+00  0.130E+00
 -7.060  0.130E+00  0.129E+00
 -7.050  0.129E+00  0.128E+00
 -7.040  0.127E+00  0.127E+00
 -7.030  0.126E+00  0.125E+00
 -7.020  0.124E+00  0.123E+00
 -7.010  0.122E+00  0.121E+00
 -7.000  0.120E+00  0.119E+00
 -6.990  0.118E+00  0.117E+00
 -6.980  0.116E+00  0.115E+00
 -6.970  0.114E+00  0.113E+00
 -6.960  0.113E+00  0.112E+00
 -6.950  0.112E+00  0.111E+00
 -6.940  0.111E+00  0.110E+00
 -6.930  0.111E+00  0.110E+00
 -6.920  0.111E+00  0.110E+00
 -6.910  0.111E+00  0.110E+00
 -6.900  0.112E+00  0.111E+00
 -6.890  0.113E+00  0.112E+00
 -6.880  0.115E+00  0.114E+00
 -6.870  0.117E+00  0.116E+00
 -6.860  0.119E+00  0.118E+00
 -6.850  0.121E+00  0.120E+00
 -6.840  0.123E+00  0.122E+00
 -6.830  0.125E+00  0.124E+00
 -6.820  0.127E+00  0.127E+00
 -6.810  0.130E+00  0.129E+00
 -6.800  0.132E+00  0.131E+00
 -6.790  0.134E+00  0.133E+00
 -6.780  0.136E+00  0.135E+00
 -6.770  0.137E+00  0.136E+00
 -6.760  0.139E+00  0.138E+00
 -6.750  0.141E+00  0.140E+00
 -6.740  0.142E+00  0.141E+00
 -6.730  0.143E+00  0.142E+00
 -6.720  0.145E+00  0.144E+00
 -6.710  0.146E+00  0.145E+00
 -6.700  0.147E+00  0.146E+00
 -6.690  0.149E+00  0.147E+00
 -6.680  0.150E+00  0.149E+00
 -6.670  0.151E+00  0.150E+00
 -6.660  0.152E+00  0.151E+00
 -6.650  0.154E+00  0.152E+00
 -6.640  0.155E+00  0.154E+00
 -6.630  0.156E+00  0.154E+00
 -6.620  0.156E+00  0.155E+00
 -6.610  0.157E+00  0.156E+00
 -6.600  0.157E+00  0.156E+00
 -6.590  0.157E+00  0.156E+00
 -6.580  0.157E+00  0.156E+00
 -6.570  0.156E+00  0.155E+00
 -6.560  0.155E+00  0.154E+00
 -6.550  0.153E+00  0.152E+00
 -6.540  0.151E+00  0.150E+00
 -6.530  0.149E+00  0.148E+00
 -6.520  0.146E+00  0.145E+00
 -6.510  0.144E+00  0.143E+00
 -6.500  0.141E+00  0.140E+00
 -6.490  0.138E+00  0.137E+00
 -6.480  0.135E+00  0.134E+00
 -6.470  0.132E+00  0.131E+00
 -6.460  0.130E+00  0.129E+00
 -6.450  0.127E+00  0.127E+00
 -6.440  0.126E+00  0.125E+00
 -6.430  0.124E+00  0.123E+00
 -6.420  0.124E+00  0.123E+00
 -6.410  0.124E+00  0.123E+00
 -6.400  0.124E+00  0.123E+00
 -6.390  0.125E+00  0.124E+00
 -6.380  0.127E+00  0.126E+00
 -6.370  0.129E+00  0.128E+00
 -6.360  0.132E+00  0.131E+00
 -6.350  0.135E+00  0.134E+00
 -6.340  0.139E+00  0.137E+00
 -6.330  0.143E+00  0.141E+00
 -6.320  0.147E+00  0.146E+00
 -6.310  0.151E+00  0.150E+00
 -6.300  0.156E+00  0.155E+00
 -6.290  0.161E+00  0.159E+00
 -6.280  0.165E+00  0.164E+00
 -6.270  0.169E+00  0.168E+00
 -6.260  0.173E+00  0.172E+00
 -6.250  0.177E+00  0.176E+00
 -6.240  0.181E+00  0.179E+00
 -6.230  0.183E+00  0.182E+00
 -6.220  0.186E+00  0.184E+00
 -6.210  0.188E+00  0.186E+00
 -6.200  0.189E+00  0.187E+00
 -6.190  0.190E+00  0.188E+00
 -6.180  0.190E+00  0.188E+00
 -6.170  0.189E+00  0.188E+00
 -6.160  0.188E+00  0.187E+00
 -6.150  0.187E+00  0.186E+00
 -6.140  0.185E+00  0.184E+00
 -6.130  0.183E+00  0.182E+00
 -6.120  0.181E+00  0.179E+00
 -6.110  0.178E+00  0.177E+00
 -6.100  0.176E+00  0.174E+00
 -6.090  0.173E+00  0.172E+00
 -6.080  0.171E+00  0.170E+00
 -6.070  0.169E+00  0.168E+00
 -6.060  0.167E+00  0.166E+00
 -6.050  0.166E+00  0.164E+00
 -6.040  0.164E+00  0.163E+00
 -6.030  0.164E+00  0.162E+00
 -6.020  0.163E+00  0.162E+00
 -6.010  0.163E+00  0.161E+00
 -6.000  0.162E+00  0.161E+00
 -5.990  0.162E+00  0.161E+00
 -5.980  0.162E+00  0.161E+00
 -5.970  0.162E+00  0.161E+00
 -5.960  0.162E+00  0.161E+00
 -5.950  0.162E+00  0.160E+00
 -5.940  0.161E+00  0.160E+00
 -5.930  0.160E+00  0.159E+00
 -5.920  0.159E+00  0.158E+00
 -5.910  0.158E+00  0.157E+00
 -5.900  0.157E+00  0.155E+00
 -5.890  0.155E+00  0.154E+00
 -5.880  0.154E+00  0.152E+00
 -5.870  0.152E+00  0.151E+00
 -5.860  0.151E+00  0.150E+00
 -5.850  0.150E+00  0.149E+00
 -5.840  0.149E+00  0.148E+00
 -5.830  0.149E+00  0.148E+00
 -5.820  0.150E+00  0.149E+00
 -5.810  0.151E+00  0.150E+00
 -5.800  0.153E+00  0.152E+00
 -5.790  0.155E+00  0.154E+00
 -5.780  0.159E+00  0.157E+00
 -5.770  0.162E+00  0.161E+00
 -5.760  0.167E+00  0.165E+00
 -5.750  0.172E+00  0.170E+00
 -5.740  0.177E+00  0.175E+00
 -5.730  0.182E+00  0.181E+00
 -5.720  0.188E+00  0.186E+00
 -5.710  0.193E+00  0.192E+00
 -5.700  0.198E+00  0.197E+00
 -5.690  0.203E+00  0.202E+00
 -5.680  0.207E+00  0.206E+00
 -5.670  0.211E+00  0.210E+00
 -5.660  0.215E+00  0.213E+00
 -5.650  0.217E+00  0.216E+00
 -5.640  0.219E+00  0.217E+00
 -5.630  0.220E+00  0.219E+00
 -5.620  0.221E+00  0.219E+00
 -5.610  0.221E+00  0.219E+00
 -5.600  0.220E+00  0.218E+00
 -5.590  0.219E+00  0.217E+00
 -5.580  0.217E+00  0.216E+00
 -5.570  0.215E+00  0.213E+00
 -5.560  0.213E+00  0.211E+00
 -5.550  0.210E+00  0.208E+00
 -5.540  0.207E+00  0.205E+00
 -5.530  0.204E+00  0.202E+00
 -5.520  0.201E+00  0.199E+00
 -5.510  0.197E+00  0.196E+00
 -5.500  0.194E+00  0.193E+00
 -5.490  0.191E+00  0.190E+00
 -5.480  0.189E+00  0.187E+00
 -5.470  0.186E+00  0.185E+00
 -5.460  0.184E+00  0.183E+00
 -5.450  0.182E+00  0.181E+00
 -5.440  0.181E+00  0.179E+00
 -5.430  0.180E+00  0.178E+00
 -5.420  0.179E+00  0.178E+00
 -5.410  0.179E+00  0.178E+00
 -5.400  0.179E+00  0.178E+00
 -5.390  0.180E+00  0.179E+00
 -5.380  0.181E+00  0.180E+00
 -5.370  0.182E+00  0.181E+00
 -5.360  0.183E+00  0.182E+00
 -5.350  0.185E+00  0.183E+00
 -5.340  0.186E+00  0.185E+00
 -5.330  0.187E+00  0.186E+00
 -5.320  0.188E+00  0.187E+00
 -5.310  0.189E+00  0.187E+00
 -5.300  0.189E+00  0.188E+00
 -5.290  0.190E+00  0.188E+00
 -5.280  0.189E+00  0.188E+00
 -5.270  0.189E+00  0.187E+00
 -5.260  0.188E+00  0.187E+00
 -5.250  0.187E+00  0.186E+00
 -5.240  0.186E+00  0.185E+00
 -5.230  0.185E+00  0.184E+00
 -5.220  0.184E+00  0.182E+00
 -5.210  0.183E+00  0.181E+00
 -5.200  0.182E+00  0.181E+00
 -5.190  0.181E+00  0.180E+00
 -5.180  0.181E+00  0.180E+00
 -5.170  0.182E+00  0.180E+00
 -5.160  0.183E+00  0.181E+00
 -5.150  0.184E+00  0.183E+00
 -5.140  0.186E+00  0.184E+00
 -5.130  0.188E+00  0.187E+00
 -5.120  0.191E+00  0.189E+00
 -5.110  0.194E+00  0.193E+00
 -5.100  0.197E+00  0.196E+00
 -5.090  0.201E+00  0.200E+00
 -5.080  0.205E+00  0.203E+00
 -5.070  0.209E+00  0.207E+00
 -5.060  0.213E+00  0.211E+00
 -5.050  0.216E+00  0.215E+00
 -5.040  0.220E+00  0.218E+00
 -5.030  0.223E+00  0.222E+00
 -5.020  0.226E+00  0.225E+00
 -5.010  0.229E+00  0.228E+00
 -5.000  0.232E+00  0.230E+00
 -4.990  0.234E+00  0.232E+00
 -4.980  0.236E+00  0.234E+00
 -4.970  0.238E+00  0.236E+00
 -4.960  0.239E+00  0.237E+00
 -4.950  0.241E+00  0.239E+00
 -4.940  0.242E+00  0.240E+00
 -4.930  0.243E+00  0.241E+00
 -4.920  0.244E+00  0.242E+00
 -4.910  0.245E+00  0.243E+00
 -4.900  0.246E+00  0.244E+00
 -4.890  0.247E+00  0.245E+00
 -4.880  0.248E+00  0.246E+00
 -4.870  0.249E+00  0.247E+00
 -4.860  0.249E+00  0.247E+00
 -4.850  0.249E+00  0.248E+00
 -4.840  0.249E+00  0.248E+00
 -4.830  0.249E+00  0.247E+00
 -4.820  0.248E+00  0.246E+00
 -4.810  0.246E+00  0.245E+00
 -4.800  0.244E+00  0.242E+00
 -4.790  0.241E+00  0.240E+00
 -4.780  0.238E+00  0.236E+00
 -4.770  0.233E+00  0.232E+00
 -4.760  0.228E+00  0.227E+00
 -4.750  0.223E+00  0.221E+00
 -4.740  0.217E+00  0.215E+00
 -4.730  0.211E+00  0.209E+00
 -4.720  0.204E+00  0.203E+00
 -4.710  0.198E+00  0.196E+00
 -4.700  0.191E+00  0.190E+00
 -4.690  0.185E+00  0.184E+00
 -4.680  0.180E+00  0.178E+00
 -4.670  0.175E+00  0.174E+00
 -4.660  0.171E+00  0.170E+00
 -4.650  0.168E+00  0.167E+00
 -4.640  0.166E+00  0.165E+00
 -4.630  0.165E+00  0.164E+00
 -4.620  0.165E+00  0.164E+00
 -4.610  0.166E+00  0.165E+00
 -4.600  0.169E+00  0.167E+00
 -4.590  0.172E+00  0.171E+00
 -4.580  0.176E+00  0.175E+00
 -4.570  0.181E+00  0.180E+00
 -4.560  0.187E+00  0.186E+00
 -4.550  0.194E+00  0.192E+00
 -4.540  0.200E+00  0.199E+00
 -4.530  0.207E+00  0.206E+00
 -4.520  0.214E+00  0.213E+00
 -4.510  0.221E+00  0.220E+00
 -4.500  0.228E+00  0.226E+00
 -4.490  0.234E+00  0.232E+00
 -4.480  0.240E+00  0.238E+00
 -4.470  0.245E+00  0.243E+00
 -4.460  0.249E+00  0.248E+00
 -4.450  0.253E+00  0.252E+00
 -4.440  0.257E+00  0.255E+00
 -4.430  0.259E+00  0.257E+00
 -4.420  0.261E+00  0.259E+00
 -4.410  0.262E+00  0.260E+00
 -4.400  0.262E+00  0.261E+00
 -4.390  0.262E+00  0.261E+00
 -4.380  0.262E+00  0.260E+00
 -4.370  0.261E+00  0.259E+00
 -4.360  0.260E+00  0.258E+00
 -4.350  0.259E+00  0.257E+00
 -4.340  0.258E+00  0.256E+00
 -4.330  0.257E+00  0.255E+00
 -4.320  0.255E+00  0.254E+00
 -4.310  0.255E+00  0.253E+00
 -4.300  0.254E+00  0.252E+00
 -4.290  0.253E+00  0.252E+00
 -4.280  0.253E+00  0.251E+00
 -4.270  0.253E+00  0.252E+00
 -4.260  0.254E+00  0.252E+00
 -4.250  0.254E+00  0.253E+00
 -4.240  0.255E+00  0.253E+00
 -4.230  0.256E+00  0.254E+00
 -4.220  0.257E+00  0.255E+00
 -4.210  0.258E+00  0.257E+00
 -4.200  0.259E+00  0.258E+00
 -4.190  0.260E+00  0.259E+00
 -4.180  0.261E+00  0.259E+00
 -4.170  0.262E+00  0.260E+00
 -4.160  0.262E+00  0.260E+00
 -4.150  0.262E+00  0.260E+00
 -4.140  0.262E+00  0.260E+00
 -4.130  0.261E+00  0.260E+00
 -4.120  0.261E+00  0.259E+00
 -4.110  0.260E+00  0.258E+00
 -4.100  0.259E+00  0.257E+00
 -4.090  0.257E+00  0.256E+00
 -4.080  0.256E+00  0.254E+00
 -4.070  0.255E+00  0.253E+00
 -4.060  0.253E+00  0.251E+00
 -4.050  0.252E+00  0.250E+00
 -4.040  0.250E+00  0.248E+00
 -4.030  0.249E+00  0.247E+00
 -4.020  0.247E+00  0.245E+00
 -4.010  0.245E+00  0.244E+00
 -4.000  0.244E+00  0.242E+00
 -3.990  0.242E+00  0.240E+00
 -3.980  0.240E+00  0.239E+00
 -3.970  0.238E+00  0.236E+00
 -3.960  0.236E+00  0.234E+00
 -3.950  0.234E+00  0.232E+00
 -3.940  0.231E+00  0.229E+00
 -3.930  0.228E+00  0.227E+00
 -3.920  0.226E+00  0.224E+00
 -3.910  0.223E+00  0.222E+00
 -3.900  0.221E+00  0.219E+00
 -3.890  0.218E+00  0.217E+00
 -3.880  0.216E+00  0.215E+00
 -3.870  0.214E+00  0.213E+00
 -3.860  0.213E+00  0.212E+00
 -3.850  0.212E+00  0.211E+00
 -3.840  0.212E+00  0.211E+00
 -3.830  0.212E+00  0.211E+00
 -3.820  0.213E+00  0.212E+00
 -3.810  0.215E+00  0.214E+00
 -3.800  0.217E+00  0.216E+00
 -3.790  0.220E+00  0.219E+00
 -3.780  0.224E+00  0.222E+00
 -3.770  0.228E+00  0.226E+00
 -3.760  0.232E+00  0.231E+00
 -3.750  0.238E+00  0.236E+00
 -3.740  0.243E+00  0.241E+00
 -3.730  0.249E+00  0.247E+00
 -3.720  0.255E+00  0.253E+00
 -3.710  0.261E+00  0.259E+00
 -3.700  0.267E+00  0.265E+00
 -3.690  0.273E+00  0.271E+00
 -3.680  0.279E+00  0.277E+00
 -3.670  0.285E+00  0.283E+00
 -3.660  0.290E+00  0.288E+00
 -3.650  0.295E+00  0.293E+00
 -3.640  0.299E+00  0.297E+00
 -3.630  0.302E+00  0.301E+00
 -3.620  0.305E+00  0.303E+00
 -3.610  0.307E+00  0.305E+00
 -3.600  0.308E+00  0.306E+00
 -3.590  0.309E+00  0.307E+00
 -3.580  0.308E+00  0.306E+00
 -3.570  0.307E+00  0.305E+00
 -3.560  0.306E+00  0.304E+00
 -3.550  0.303E+00  0.301E+00
 -3.540  0.301E+00  0.299E+00
 -3.530  0.298E+00  0.296E+00
 -3.520  0.295E+00  0.293E+00
 -3.510  0.292E+00  0.290E+00
 -3.500  0.289E+00  0.287E+00
 -3.490  0.286E+00  0.285E+00
 -3.480  0.284E+00  0.283E+00
 -3.470  0.283E+00  0.281E+00
 -3.460  0.282E+00  0.280E+00
 -3.450  0.282E+00  0.280E+00
 -3.440  0.282E+00  0.280E+00
 -3.430  0.283E+00  0.281E+00
 -3.420  0.284E+00  0.282E+00
 -3.410  0.285E+00  0.284E+00
 -3.400  0.287E+00  0.285E+00
 -3.390  0.289E+00  0.287E+00
 -3.380  0.290E+00  0.289E+00
 -3.370  0.292E+00  0.290E+00
 -3.360  0.293E+00  0.291E+00
 -3.350  0.293E+00  0.291E+00
 -3.340  0.293E+00  0.291E+00
 -3.330  0.292E+00  0.291E+00
 -3.320  0.291E+00  0.289E+00
 -3.310  0.290E+00  0.288E+00
 -3.300  0.288E+00  0.286E+00
 -3.290  0.285E+00  0.283E+00
 -3.280  0.283E+00  0.281E+00
 -3.270  0.280E+00  0.279E+00
 -3.260  0.278E+00  0.276E+00
 -3.250  0.276E+00  0.274E+00
 -3.240  0.274E+00  0.273E+00
 -3.230  0.273E+00  0.272E+00
 -3.220  0.273E+00  0.271E+00
 -3.210  0.273E+00  0.272E+00
 -3.200  0.274E+00  0.273E+00
 -3.190  0.276E+00  0.274E+00
 -3.180  0.278E+00  0.276E+00
 -3.170  0.280E+00  0.278E+00
 -3.160  0.282E+00  0.281E+00
 -3.150  0.285E+00  0.283E+00
 -3.140  0.287E+00  0.285E+00
 -3.130  0.289E+00  0.287E+00
 -3.120  0.290E+00  0.288E+00
 -3.110  0.290E+00  0.289E+00
 -3.100  0.290E+00  0.288E+00
 -3.090  0.288E+00  0.287E+00
 -3.080  0.286E+00  0.284E+00
 -3.070  0.283E+00  0.281E+00
 -3.060  0.278E+00  0.277E+00
 -3.050  0.273E+00  0.272E+00
 -3.040  0.268E+00  0.266E+00
 -3.030  0.262E+00  0.260E+00
 -3.020  0.256E+00  0.254E+00
 -3.010  0.250E+00  0.248E+00
 -3.000  0.244E+00  0.243E+00
 -2.990  0.240E+00  0.238E+00
 -2.980  0.236E+00  0.235E+00
 -2.970  0.233E+00  0.232E+00
 -2.960  0.232E+00  0.231E+00
 -2.950  0.232E+00  0.231E+00
 -2.940  0.234E+00  0.233E+00
 -2.930  0.238E+00  0.236E+00
 -2.920  0.243E+00  0.241E+00
 -2.910  0.249E+00  0.248E+00
 -2.900  0.257E+00  0.256E+00
 -2.890  0.266E+00  0.265E+00
 -2.880  0.276E+00  0.275E+00
 -2.870  0.288E+00  0.286E+00
 -2.860  0.299E+00  0.298E+00
 -2.850  0.312E+00  0.310E+00
 -2.840  0.324E+00  0.322E+00
 -2.830  0.336E+00  0.335E+00
 -2.820  0.348E+00  0.346E+00
 -2.810  0.359E+00  0.358E+00
 -2.800  0.370E+00  0.368E+00
 -2.790  0.379E+00  0.377E+00
 -2.780  0.387E+00  0.385E+00
 -2.770  0.393E+00  0.391E+00
 -2.760  0.398E+00  0.396E+00
 -2.750  0.402E+00  0.400E+00
 -2.740  0.403E+00  0.401E+00
 -2.730  0.404E+00  0.402E+00
 -2.720  0.402E+00  0.400E+00
 -2.710  0.400E+00  0.398E+00
 -2.700  0.396E+00  0.394E+00
 -2.690  0.392E+00  0.390E+00
 -2.680  0.386E+00  0.384E+00
 -2.670  0.381E+00  0.379E+00
 -2.660  0.375E+00  0.373E+00
 -2.650  0.369E+00  0.367E+00
 -2.640  0.363E+00  0.361E+00
 -2.630  0.358E+00  0.356E+00
 -2.620  0.353E+00  0.351E+00
 -2.610  0.349E+00  0.347E+00
 -2.600  0.346E+00  0.344E+00
 -2.590  0.343E+00  0.341E+00
 -2.580  0.341E+00  0.339E+00
 -2.570  0.339E+00  0.338E+00
 -2.560  0.339E+00  0.337E+00
 -2.550  0.338E+00  0.336E+00
 -2.540  0.338E+00  0.336E+00
 -2.530  0.338E+00  0.336E+00
 -2.520  0.338E+00  0.337E+00
 -2.510  0.338E+00  0.337E+00
 -2.500  0.339E+00  0.337E+00
 -2.490  0.339E+00  0.337E+00
 -2.480  0.339E+00  0.338E+00
 -2.470  0.340E+00  0.338E+00
 -2.460  0.340E+00  0.338E+00
 -2.450  0.340E+00  0.339E+00
 -2.440  0.341E+00  0.339E+00
 -2.430  0.342E+00  0.340E+00
 -2.420  0.342E+00  0.341E+00
 -2.410  0.344E+00  0.342E+00
 -2.400  0.345E+00  0.344E+00
 -2.390  0.347E+00  0.345E+00
 -2.380  0.349E+00  0.347E+00
 -2.370  0.351E+00  0.349E+00
 -2.360  0.353E+00  0.352E+00
 -2.350  0.355E+00  0.354E+00
 -2.340  0.357E+00  0.356E+00
 -2.330  0.359E+00  0.357E+00
 -2.320  0.360E+00  0.358E+00
 -2.310  0.360E+00  0.359E+00
 -2.300  0.360E+00  0.359E+00
 -2.290  0.360E+00  0.358E+00
 -2.280  0.358E+00  0.356E+00
 -2.270  0.356E+00  0.354E+00
 -2.260  0.352E+00  0.351E+00
 -2.250  0.349E+00  0.347E+00
 -2.240  0.344E+00  0.343E+00
 -2.230  0.340E+00  0.338E+00
 -2.220  0.335E+00  0.333E+00
 -2.210  0.330E+00  0.329E+00
 -2.200  0.325E+00  0.324E+00
 -2.190  0.321E+00  0.320E+00
 -2.180  0.318E+00  0.316E+00
 -2.170  0.315E+00  0.314E+00
 -2.160  0.314E+00  0.312E+00
 -2.150  0.313E+00  0.312E+00
 -2.140  0.314E+00  0.313E+00
 -2.130  0.316E+00  0.315E+00
 -2.120  0.320E+00  0.318E+00
 -2.110  0.324E+00  0.323E+00
 -2.100  0.330E+00  0.329E+00
 -2.090  0.337E+00  0.336E+00
 -2.080  0.345E+00  0.343E+00
 -2.070  0.353E+00  0.352E+00
 -2.060  0.363E+00  0.361E+00
 -2.050  0.372E+00  0.371E+00
 -2.040  0.382E+00  0.381E+00
 -2.030  0.392E+00  0.391E+00
 -2.020  0.402E+00  0.400E+00
 -2.010  0.412E+00  0.410E+00
 -2.000  0.421E+00  0.419E+00
 -1.990  0.430E+00  0.428E+00
 -1.980  0.437E+00  0.436E+00
 -1.970  0.444E+00  0.443E+00
 -1.960  0.450E+00  0.449E+00
 -1.950  0.455E+00  0.454E+00
 -1.940  0.459E+00  0.457E+00
 -1.930  0.461E+00  0.459E+00
 -1.920  0.462E+00  0.460E+00
 -1.910  0.461E+00  0.459E+00
 -1.900  0.459E+00  0.457E+00
 -1.890  0.455E+00  0.453E+00
 -1.880  0.450E+00  0.448E+00
 -1.870  0.444E+00  0.442E+00
 -1.860  0.436E+00  0.434E+00
 -1.850  0.427E+00  0.426E+00
 -1.840  0.418E+00  0.416E+00
 -1.830  0.408E+00  0.406E+00
 -1.820  0.397E+00  0.396E+00
 -1.810  0.387E+00  0.385E+00
 -1.800  0.376E+00  0.375E+00
 -1.790  0.366E+00  0.364E+00
 -1.780  0.356E+00  0.354E+00
 -1.770  0.346E+00  0.345E+00
 -1.760  0.337E+00  0.336E+00
 -1.750  0.329E+00  0.328E+00
 -1.740  0.322E+00  0.320E+00
 -1.730  0.315E+00  0.314E+00
 -1.720  0.309E+00  0.308E+00
 -1.710  0.304E+00  0.303E+00
 -1.700  0.299E+00  0.298E+00
 -1.690  0.295E+00  0.294E+00
 -1.680  0.292E+00  0.291E+00
 -1.670  0.289E+00  0.288E+00
 -1.660  0.287E+00  0.286E+00
 -1.650  0.285E+00  0.284E+00
 -1.640  0.283E+00  0.282E+00
 -1.630  0.282E+00  0.281E+00
 -1.620  0.281E+00  0.280E+00
 -1.610  0.280E+00  0.279E+00
 -1.600  0.280E+00  0.279E+00
 -1.590  0.280E+00  0.279E+00
 -1.580  0.280E+00  0.279E+00
 -1.570  0.280E+00  0.279E+00
 -1.560  0.281E+00  0.280E+00
 -1.550  0.282E+00  0.281E+00
 -1.540  0.284E+00  0.283E+00
 -1.530  0.285E+00  0.284E+00
 -1.520  0.287E+00  0.286E+00
 -1.510  0.289E+00  0.288E+00
 -1.500  0.291E+00  0.290E+00
 -1.490  0.293E+00  0.291E+00
 -1.480  0.294E+00  0.293E+00
 -1.470  0.296E+00  0.295E+00
 -1.460  0.297E+00  0.296E+00
 -1.450  0.299E+00  0.298E+00
 -1.440  0.300E+00  0.299E+00
 -1.430  0.301E+00  0.300E+00
 -1.420  0.301E+00  0.300E+00
 -1.410  0.302E+00  0.301E+00
 -1.400  0.302E+00  0.301E+00
 -1.390  0.303E+00  0.302E+00
 -1.380  0.304E+00  0.303E+00
 -1.370  0.304E+00  0.303E+00
 -1.360  0.306E+00  0.305E+00
 -1.350  0.307E+00  0.306E+00
 -1.340  0.310E+00  0.309E+00
 -1.330  0.313E+00  0.312E+00
 -1.320  0.316E+00  0.315E+00
 -1.310  0.320E+00  0.319E+00
 -1.300  0.325E+00  0.324E+00
 -1.290  0.331E+00  0.329E+00
 -1.280  0.336E+00  0.335E+00
 -1.270  0.343E+00  0.341E+00
 -1.260  0.349E+00  0.348E+00
 -1.250  0.355E+00  0.354E+00
 -1.240  0.361E+00  0.360E+00
 -1.230  0.367E+00  0.366E+00
 -1.220  0.372E+00  0.371E+00
 -1.210  0.376E+00  0.375E+00
 -1.200  0.380E+00  0.378E+00
 -1.190  0.382E+00  0.381E+00
 -1.180  0.383E+00  0.382E+00
 -1.170  0.383E+00  0.382E+00
 -1.160  0.382E+00  0.381E+00
 -1.150  0.379E+00  0.378E+00
 -1.140  0.375E+00  0.374E+00
 -1.130  0.370E+00  0.369E+00
 -1.120  0.364E+00  0.363E+00
 -1.110  0.357E+00  0.356E+00
 -1.100  0.349E+00  0.347E+00
 -1.090  0.340E+00  0.339E+00
 -1.080  0.330E+00  0.329E+00
 -1.070  0.320E+00  0.319E+00
 -1.060  0.310E+00  0.309E+00
 -1.050  0.299E+00  0.298E+00
 -1.040  0.289E+00  0.288E+00
 -1.030  0.279E+00  0.278E+00
 -1.020  0.269E+00  0.268E+00
 -1.010  0.259E+00  0.258E+00
 -1.000  0.250E+00  0.249E+00
 -0.990  0.242E+00  0.241E+00
 -0.980  0.234E+00  0.234E+00
 -0.970  0.228E+00  0.227E+00
 -0.960  0.222E+00  0.222E+00
 -0.950  0.218E+00  0.217E+00
 -0.940  0.215E+00  0.214E+00
 -0.930  0.213E+00  0.213E+00
 -0.920  0.213E+00  0.212E+00
 -0.910  0.213E+00  0.213E+00
 -0.900  0.215E+00  0.215E+00
 -0.890  0.218E+00  0.218E+00
 -0.880  0.222E+00  0.222E+00
 -0.870  0.228E+00  0.227E+00
 -0.860  0.233E+00  0.233E+00
 -0.850  0.240E+00  0.239E+00
 -0.840  0.247E+00  0.246E+00
 -0.830  0.255E+00  0.254E+00
 -0.820  0.262E+00  0.261E+00
 -0.810  0.270E+00  0.269E+00
 -0.800  0.277E+00  0.276E+00
 -0.790  0.284E+00  0.283E+00
 -0.780  0.290E+00  0.289E+00
 -0.770  0.296E+00  0.295E+00
 -0.760  0.300E+00  0.299E+00
 -0.750  0.304E+00  0.303E+00
 -0.740  0.307E+00  0.306E+00
 -0.730  0.308E+00  0.307E+00
 -0.720  0.309E+00  0.308E+00
 -0.710  0.308E+00  0.307E+00
 -0.700  0.307E+00  0.306E+00
 -0.690  0.304E+00  0.303E+00
 -0.680  0.300E+00  0.299E+00
 -0.670  0.296E+00  0.295E+00
 -0.660  0.291E+00  0.290E+00
 -0.650  0.285E+00  0.284E+00
 -0.640  0.279E+00  0.278E+00
 -0.630  0.272E+00  0.271E+00
 -0.620  0.266E+00  0.265E+00
 -0.610  0.259E+00  0.258E+00
 -0.600  0.253E+00  0.252E+00
 -0.590  0.247E+00  0.246E+00
 -0.580  0.241E+00  0.240E+00
 -0.570  0.236E+00  0.235E+00
 -0.560  0.232E+00  0.231E+00
 -0.550  0.229E+00  0.228E+00
 -0.540  0.226E+00  0.226E+00
 -0.530  0.225E+00  0.224E+00
 -0.520  0.225E+00  0.224E+00
 -0.510  0.225E+00  0.225E+00
 -0.500  0.227E+00  0.226E+00
 -0.490  0.229E+00  0.229E+00
 -0.480  0.233E+00  0.232E+00
 -0.470  0.237E+00  0.236E+00
 -0.460  0.241E+00  0.241E+00
 -0.450  0.247E+00  0.246E+00
 -0.440  0.252E+00  0.251E+00
 -0.430  0.257E+00  0.256E+00
 -0.420  0.262E+00  0.261E+00
 -0.410  0.267E+00  0.266E+00
 -0.400  0.271E+00  0.271E+00
 -0.390  0.275E+00  0.274E+00
 -0.380  0.278E+00  0.277E+00
 -0.370  0.280E+00  0.279E+00
 -0.360  0.281E+00  0.280E+00
 -0.350  0.281E+00  0.280E+00
 -0.340  0.280E+00  0.279E+00
 -0.330  0.278E+00  0.277E+00
 -0.320  0.274E+00  0.274E+00
 -0.310  0.270E+00  0.270E+00
 -0.300  0.266E+00  0.265E+00
 -0.290  0.260E+00  0.259E+00
 -0.280  0.254E+00  0.253E+00
 -0.270  0.247E+00  0.247E+00
 -0.260  0.240E+00  0.240E+00
 -0.250  0.233E+00  0.233E+00
 -0.240  0.226E+00  0.226E+00
 -0.230  0.220E+00  0.219E+00
 -0.220  0.213E+00  0.213E+00
 -0.210  0.207E+00  0.207E+00
 -0.200  0.202E+00  0.202E+00
 -0.190  0.198E+00  0.197E+00
 -0.180  0.194E+00  0.193E+00
 -0.170  0.191E+00  0.190E+00
 -0.160  0.189E+00  0.189E+00
 -0.150  0.188E+00  0.188E+00
 -0.140  0.189E+00  0.188E+00
 -0.130  0.190E+00  0.189E+00
 -0.120  0.192E+00  0.191E+00
 -0.110  0.195E+00  0.194E+00
 -0.100  0.199E+00  0.198E+00
 -0.090  0.203E+00  0.202E+00
 -0.080  0.208E+00  0.207E+00
 -0.070  0.213E+00  0.213E+00
 -0.060  0.219E+00  0.218E+00
 -0.050  0.225E+00  0.224E+00
 -0.040  0.230E+00  0.229E+00
 -0.030  0.236E+00  0.235E+00
 -0.020  0.241E+00  0.240E+00
 -0.010  0.246E+00  0.245E+00
  0.000  0.250E+00  0.249E+00
  0.010  0.254E+00  0.253E+00
  0.020  0.257E+00  0.256E+00
  0.030  0.259E+00  0.258E+00
  0.040  0.261E+00  0.260E+00
  0.050  0.263E+00  0.262E+00
  0.060  0.264E+00  0.263E+00
  0.070  0.265E+00  0.264E+00
  0.080  0.266E+00  0.265E+00
  0.090  0.267E+00  0.266E+00
  0.100  0.268E+00  0.267E+00
  0.110  0.269E+00  0.268E+00
  0.120  0.270E+00  0.269E+00
  0.130  0.272E+00  0.271E+00
  0.140  0.274E+00  0.273E+00
  0.150  0.276E+00  0.275E+00
  0.160  0.278E+00  0.277E+00
  0.170  0.281E+00  0.279E+00
  0.180  0.283E+00  0.282E+00
  0.190  0.286E+00  0.285E+00
  0.200  0.289E+00  0.287E+00
  0.210  0.291E+00  0.290E+00
  0.220  0.293E+00  0.292E+00
  0.230  0.295E+00  0.294E+00
  0.240  0.297E+00  0.295E+00
  0.250  0.298E+00  0.296E+00
  0.260  0.298E+00  0.297E+00
  0.270  0.298E+00  0.297E+00
  0.280  0.298E+00  0.296E+00
  0.290  0.297E+00  0.295E+00
  0.300  0.295E+00  0.293E+00
  0.310  0.292E+00  0.291E+00
  0.320  0.289E+00  0.288E+00
  0.330  0.286E+00  0.284E+00
  0.340  0.282E+00  0.280E+00
  0.350  0.277E+00  0.276E+00
  0.360  0.272E+00  0.271E+00
  0.370  0.267E+00  0.266E+00
  0.380  0.262E+00  0.260E+00
  0.390  0.257E+00  0.255E+00
  0.400  0.252E+00  0.250E+00
  0.410  0.247E+00  0.245E+00
  0.420  0.242E+00  0.240E+00
  0.430  0.238E+00  0.236E+00
  0.440  0.234E+00  0.233E+00
  0.450  0.231E+00  0.230E+00
  0.460  0.229E+00  0.228E+00
  0.470  0.228E+00  0.227E+00
  0.480  0.228E+00  0.226E+00
  0.490  0.229E+00  0.227E+00
  0.500  0.230E+00  0.229E+00
  0.510  0.233E+00  0.231E+00
  0.520  0.236E+00  0.235E+00
  0.530  0.240E+00  0.239E+00
  0.540  0.245E+00  0.243E+00
  0.550  0.250E+00  0.248E+00
  0.560  0.255E+00  0.254E+00
  0.570  0.261E+00  0.259E+00
  0.580  0.267E+00  0.265E+00
  0.590  0.272E+00  0.270E+00
  0.600  0.277E+00  0.275E+00
  0.610  0.282E+00  0.280E+00
  0.620  0.286E+00  0.284E+00
  0.630  0.290E+00  0.288E+00
  0.640  0.293E+00  0.291E+00
  0.650  0.296E+00  0.294E+00
  0.660  0.298E+00  0.296E+00
  0.670  0.299E+00  0.297E+00
  0.680  0.300E+00  0.298E+00
  0.690  0.300E+00  0.298E+00
  0.700  0.300E+00  0.298E+00
  0.710  0.300E+00  0.298E+00
  0.720  0.299E+00  0.297E+00
  0.730  0.298E+00  0.297E+00
  0.740  0.297E+00  0.296E+00
  0.750  0.297E+00  0.295E+00
  0.760  0.296E+00  0.294E+00
  0.770  0.295E+00  0.294E+00
  0.780  0.295E+00  0.293E+00
  0.790  0.294E+00  0.292E+00
  0.800  0.294E+00  0.292E+00
  0.810  0.294E+00  0.292E+00
  0.820  0.293E+00  0.291E+00
  0.830  0.292E+00  0.290E+00
  0.840  0.291E+00  0.289E+00
  0.850  0.290E+00  0.288E+00
  0.860  0.289E+00  0.287E+00
  0.870  0.287E+00  0.285E+00
  0.880  0.284E+00  0.282E+00
  0.890  0.282E+00  0.280E+00
  0.900  0.279E+00  0.276E+00
  0.910  0.275E+00  0.273E+00
  0.920  0.271E+00  0.269E+00
  0.930  0.267E+00  0.265E+00
  0.940  0.263E+00  0.261E+00
  0.950  0.259E+00  0.257E+00
  0.960  0.255E+00  0.253E+00
  0.970  0.252E+00  0.250E+00
  0.980  0.248E+00  0.246E+00
  0.990  0.245E+00  0.243E+00
  1.000  0.243E+00  0.241E+00
  1.010  0.241E+00  0.239E+00
  1.020  0.239E+00  0.237E+00
  1.030  0.238E+00  0.236E+00
  1.040  0.237E+00  0.236E+00
  1.050  0.237E+00  0.235E+00
  1.060  0.237E+00  0.235E+00
  1.070  0.237E+00  0.236E+00
  1.080  0.238E+00  0.236E+00
  1.090  0.239E+00  0.237E+00
  1.100  0.239E+00  0.237E+00
  1.110  0.240E+00  0.238E+00
  1.120  0.240E+00  0.239E+00
  1.130  0.241E+00  0.239E+00
  1.140  0.242E+00  0.240E+00
  1.150  0.243E+00  0.241E+00
  1.160  0.244E+00  0.242E+00
  1.170  0.245E+00  0.243E+00
  1.180  0.247E+00  0.245E+00
  1.190  0.249E+00  0.247E+00
  1.200  0.251E+00  0.250E+00
  1.210  0.255E+00  0.253E+00
  1.220  0.259E+00  0.257E+00
  1.230  0.264E+00  0.262E+00
  1.240  0.270E+00  0.268E+00
  1.250  0.276E+00  0.274E+00
  1.260  0.284E+00  0.282E+00
  1.270  0.292E+00  0.291E+00
  1.280  0.302E+00  0.300E+00
  1.290  0.312E+00  0.310E+00
  1.300  0.323E+00  0.321E+00
  1.310  0.334E+00  0.332E+00
  1.320  0.346E+00  0.344E+00
  1.330  0.358E+00  0.356E+00
  1.340  0.370E+00  0.368E+00
  1.350  0.382E+00  0.380E+00
  1.360  0.394E+00  0.391E+00
  1.370  0.405E+00  0.403E+00
  1.380  0.416E+00  0.414E+00
  1.390  0.426E+00  0.424E+00
  1.400  0.436E+00  0.433E+00
  1.410  0.444E+00  0.442E+00
  1.420  0.452E+00  0.450E+00
  1.430  0.459E+00  0.456E+00
  1.440  0.465E+00  0.462E+00
  1.450  0.470E+00  0.467E+00
  1.460  0.474E+00  0.472E+00
  1.470  0.478E+00  0.475E+00
  1.480  0.480E+00  0.478E+00
  1.490  0.482E+00  0.479E+00
  1.500  0.483E+00  0.481E+00
  1.510  0.484E+00  0.481E+00
  1.520  0.484E+00  0.482E+00
  1.530  0.484E+00  0.481E+00
  1.540  0.484E+00  0.481E+00
  1.550  0.483E+00  0.480E+00
  1.560  0.482E+00  0.480E+00
  1.570  0.482E+00  0.479E+00
  1.580  0.482E+00  0.479E+00
  1.590  0.482E+00  0.479E+00
  1.600  0.483E+00  0.480E+00
  1.610  0.484E+00  0.481E+00
  1.620  0.486E+00  0.484E+00
  1.630  0.489E+00  0.487E+00
  1.640  0.493E+00  0.490E+00
  1.650  0.497E+00  0.495E+00
  1.660  0.503E+00  0.501E+00
  1.670  0.509E+00  0.507E+00
  1.680  0.516E+00  0.514E+00
  1.690  0.523E+00  0.521E+00
  1.700  0.531E+00  0.528E+00
  1.710  0.538E+00  0.535E+00
  1.720  0.545E+00  0.542E+00
  1.730  0.551E+00  0.549E+00
  1.740  0.557E+00  0.554E+00
  1.750  0.561E+00  0.559E+00
  1.760  0.565E+00  0.562E+00
  1.770  0.567E+00  0.564E+00
  1.780  0.567E+00  0.565E+00
  1.790  0.566E+00  0.564E+00
  1.800  0.564E+00  0.562E+00
  1.810  0.561E+00  0.559E+00
  1.820  0.557E+00  0.555E+00
  1.830  0.552E+00  0.550E+00
  1.840  0.547E+00  0.545E+00
  1.850  0.542E+00  0.540E+00
  1.860  0.538E+00  0.535E+00
  1.870  0.534E+00  0.532E+00
  1.880  0.531E+00  0.529E+00
  1.890  0.530E+00  0.527E+00
  1.900  0.530E+00  0.527E+00
  1.910  0.531E+00  0.529E+00
  1.920  0.535E+00  0.532E+00
  1.930  0.540E+00  0.537E+00
  1.940  0.547E+00  0.544E+00
  1.950  0.555E+00  0.552E+00
  1.960  0.564E+00  0.561E+00
  1.970  0.574E+00  0.571E+00
  1.980  0.584E+00  0.582E+00
  1.990  0.595E+00  0.593E+00
  2.000  0.606E+00  0.603E+00
  2.010  0.616E+00  0.614E+00
  2.020  0.626E+00  0.623E+00
  2.030  0.634E+00  0.632E+00
  2.040  0.642E+00  0.639E+00
  2.050  0.647E+00  0.644E+00
  2.060  0.651E+00  0.648E+00
  2.070  0.653E+00  0.650E+00
  2.080  0.653E+00  0.650E+00
  2.090  0.652E+00  0.649E+00
  2.100  0.648E+00  0.645E+00
  2.110  0.642E+00  0.640E+00
  2.120  0.635E+00  0.633E+00
  2.130  0.627E+00  0.624E+00
  2.140  0.616E+00  0.614E+00
  2.150  0.605E+00  0.602E+00
  2.160  0.592E+00  0.590E+00
  2.170  0.579E+00  0.577E+00
  2.180  0.565E+00  0.562E+00
  2.190  0.550E+00  0.548E+00
  2.200  0.535E+00  0.533E+00
  2.210  0.519E+00  0.517E+00
  2.220  0.504E+00  0.502E+00
  2.230  0.488E+00  0.486E+00
  2.240  0.473E+00  0.471E+00
  2.250  0.457E+00  0.455E+00
  2.260  0.442E+00  0.440E+00
  2.270  0.427E+00  0.425E+00
  2.280  0.413E+00  0.411E+00
  2.290  0.399E+00  0.397E+00
  2.300  0.386E+00  0.384E+00
  2.310  0.373E+00  0.372E+00
  2.320  0.361E+00  0.360E+00
  2.330  0.350E+00  0.349E+00
  2.340  0.341E+00  0.339E+00
  2.350  0.332E+00  0.330E+00
  2.360  0.324E+00  0.323E+00
  2.370  0.318E+00  0.317E+00
  2.380  0.313E+00  0.312E+00
  2.390  0.310E+00  0.309E+00
  2.400  0.308E+00  0.306E+00
  2.410  0.307E+00  0.306E+00
  2.420  0.308E+00  0.306E+00
  2.430  0.309E+00  0.308E+00
  2.440  0.312E+00  0.311E+00
  2.450  0.316E+00  0.315E+00
  2.460  0.321E+00  0.319E+00
  2.470  0.326E+00  0.325E+00
  2.480  0.332E+00  0.330E+00
  2.490  0.338E+00  0.337E+00
  2.500  0.344E+00  0.343E+00
  2.510  0.351E+00  0.349E+00
  2.520  0.357E+00  0.355E+00
  2.530  0.363E+00  0.362E+00
  2.540  0.369E+00  0.368E+00
  2.550  0.375E+00  0.373E+00
  2.560  0.381E+00  0.379E+00
  2.570  0.386E+00  0.384E+00
  2.580  0.391E+00  0.389E+00
  2.590  0.396E+00  0.394E+00
  2.600  0.400E+00  0.399E+00
  2.610  0.405E+00  0.403E+00
  2.620  0.409E+00  0.408E+00
  2.630  0.414E+00  0.412E+00
  2.640  0.418E+00  0.416E+00
  2.650  0.422E+00  0.421E+00
  2.660  0.426E+00  0.425E+00
  2.670  0.430E+00  0.428E+00
  2.680  0.434E+00  0.432E+00
  2.690  0.437E+00  0.435E+00
  2.700  0.439E+00  0.438E+00
  2.710  0.441E+00  0.440E+00
  2.720  0.442E+00  0.441E+00
  2.730  0.443E+00  0.441E+00
  2.740  0.442E+00  0.440E+00
  2.750  0.439E+00  0.438E+00
  2.760  0.436E+00  0.434E+00
  2.770  0.431E+00  0.429E+00
  2.780  0.425E+00  0.423E+00
  2.790  0.417E+00  0.415E+00
  2.800  0.408E+00  0.406E+00
  2.810  0.397E+00  0.396E+00
  2.820  0.386E+00  0.384E+00
  2.830  0.373E+00  0.372E+00
  2.840  0.360E+00  0.359E+00
  2.850  0.347E+00  0.345E+00
  2.860  0.333E+00  0.332E+00
  2.870  0.319E+00  0.318E+00
  2.880  0.306E+00  0.305E+00
  2.890  0.294E+00  0.293E+00
  2.900  0.282E+00  0.281E+00
  2.910  0.273E+00  0.271E+00
  2.920  0.264E+00  0.263E+00
  2.930  0.258E+00  0.256E+00
  2.940  0.253E+00  0.252E+00
  2.950  0.250E+00  0.249E+00
  2.960  0.249E+00  0.248E+00
  2.970  0.250E+00  0.249E+00
  2.980  0.252E+00  0.251E+00
  2.990  0.257E+00  0.256E+00
  3.000  0.263E+00  0.261E+00
  3.010  0.270E+00  0.268E+00
  3.020  0.277E+00  0.276E+00
  3.030  0.286E+00  0.285E+00
  3.040  0.295E+00  0.294E+00
  3.050  0.304E+00  0.303E+00
  3.060  0.312E+00  0.311E+00
  3.070  0.321E+00  0.319E+00
  3.080  0.328E+00  0.327E+00
  3.090  0.334E+00  0.333E+00
  3.100  0.339E+00  0.338E+00
  3.110  0.343E+00  0.342E+00
  3.120  0.345E+00  0.344E+00
  3.130  0.346E+00  0.345E+00
  3.140  0.346E+00  0.344E+00
  3.150  0.344E+00  0.342E+00
  3.160  0.341E+00  0.339E+00
  3.170  0.337E+00  0.335E+00
  3.180  0.332E+00  0.330E+00
  3.190  0.326E+00  0.325E+00
  3.200  0.320E+00  0.319E+00
  3.210  0.314E+00  0.312E+00
  3.220  0.307E+00  0.306E+00
  3.230  0.301E+00  0.300E+00
  3.240  0.295E+00  0.294E+00
  3.250  0.290E+00  0.289E+00
  3.260  0.285E+00  0.284E+00
  3.270  0.281E+00  0.280E+00
  3.280  0.277E+00  0.276E+00
  3.290  0.274E+00  0.273E+00
  3.300  0.272E+00  0.271E+00
  3.310  0.270E+00  0.269E+00
  3.320  0.269E+00  0.268E+00
  3.330  0.269E+00  0.268E+00
  3.340  0.269E+00  0.268E+00
  3.350  0.269E+00  0.268E+00
  3.360  0.269E+00  0.268E+00
  3.370  0.270E+00  0.269E+00
  3.380  0.271E+00  0.270E+00
  3.390  0.273E+00  0.272E+00
  3.400  0.274E+00  0.273E+00
  3.410  0.276E+00  0.275E+00
  3.420  0.277E+00  0.276E+00
  3.430  0.279E+00  0.278E+00
  3.440  0.280E+00  0.279E+00
  3.450  0.282E+00  0.281E+00
  3.460  0.284E+00  0.283E+00
  3.470  0.285E+00  0.284E+00
  3.480  0.287E+00  0.286E+00
  3.490  0.288E+00  0.287E+00
  3.500  0.289E+00  0.288E+00
  3.510  0.291E+00  0.289E+00
  3.520  0.292E+00  0.291E+00
  3.530  0.293E+00  0.292E+00
  3.540  0.294E+00  0.292E+00
  3.550  0.294E+00  0.293E+00
  3.560  0.295E+00  0.294E+00
  3.570  0.295E+00  0.294E+00
  3.580  0.296E+00  0.295E+00
  3.590  0.296E+00  0.295E+00
  3.600  0.295E+00  0.294E+00
  3.610  0.295E+00  0.294E+00
  3.620  0.294E+00  0.293E+00
  3.630  0.292E+00  0.291E+00
  3.640  0.290E+00  0.289E+00
  3.650  0.287E+00  0.286E+00
  3.660  0.284E+00  0.283E+00
  3.670  0.281E+00  0.279E+00
  3.680  0.276E+00  0.275E+00
  3.690  0.272E+00  0.270E+00
  3.700  0.266E+00  0.265E+00
  3.710  0.261E+00  0.260E+00
  3.720  0.255E+00  0.254E+00
  3.730  0.250E+00  0.249E+00
  3.740  0.244E+00  0.243E+00
  3.750  0.239E+00  0.238E+00
  3.760  0.234E+00  0.233E+00
  3.770  0.231E+00  0.230E+00
  3.780  0.228E+00  0.227E+00
  3.790  0.226E+00  0.225E+00
  3.800  0.226E+00  0.225E+00
  3.810  0.227E+00  0.226E+00
  3.820  0.229E+00  0.228E+00
  3.830  0.233E+00  0.232E+00
  3.840  0.238E+00  0.237E+00
  3.850  0.245E+00  0.244E+00
  3.860  0.253E+00  0.252E+00
  3.870  0.261E+00  0.260E+00
  3.880  0.271E+00  0.270E+00
  3.890  0.281E+00  0.279E+00
  3.900  0.291E+00  0.289E+00
  3.910  0.301E+00  0.300E+00
  3.920  0.311E+00  0.309E+00
  3.930  0.320E+00  0.319E+00
  3.940  0.329E+00  0.327E+00
  3.950  0.337E+00  0.335E+00
  3.960  0.343E+00  0.342E+00
  3.970  0.349E+00  0.348E+00
  3.980  0.353E+00  0.352E+00
  3.990  0.357E+00  0.355E+00
  4.000  0.359E+00  0.357E+00
  4.010  0.359E+00  0.358E+00
  4.020  0.359E+00  0.358E+00
  4.030  0.358E+00  0.357E+00
  4.040  0.357E+00  0.355E+00
  4.050  0.354E+00  0.353E+00
  4.060  0.351E+00  0.350E+00
  4.070  0.348E+00  0.347E+00
  4.080  0.345E+00  0.344E+00
  4.090  0.343E+00  0.341E+00
  4.100  0.340E+00  0.339E+00
  4.110  0.338E+00  0.337E+00
  4.120  0.337E+00  0.335E+00
  4.130  0.336E+00  0.334E+00
  4.140  0.336E+00  0.335E+00
  4.150  0.337E+00  0.336E+00
  4.160  0.339E+00  0.337E+00
  4.170  0.342E+00  0.340E+00
  4.180  0.345E+00  0.344E+00
  4.190  0.350E+00  0.348E+00
  4.200  0.355E+00  0.353E+00
  4.210  0.360E+00  0.359E+00
  4.220  0.366E+00  0.365E+00
  4.230  0.372E+00  0.371E+00
  4.240  0.379E+00  0.377E+00
  4.250  0.385E+00  0.384E+00
  4.260  0.392E+00  0.390E+00
  4.270  0.398E+00  0.396E+00
  4.280  0.404E+00  0.402E+00
  4.290  0.409E+00  0.408E+00
  4.300  0.414E+00  0.413E+00
  4.310  0.419E+00  0.417E+00
  4.320  0.423E+00  0.422E+00
  4.330  0.427E+00  0.426E+00
  4.340  0.431E+00  0.429E+00
  4.350  0.434E+00  0.433E+00
  4.360  0.437E+00  0.436E+00
  4.370  0.440E+00  0.439E+00
  4.380  0.444E+00  0.442E+00
  4.390  0.447E+00  0.445E+00
  4.400  0.450E+00  0.449E+00
  4.410  0.454E+00  0.452E+00
  4.420  0.458E+00  0.456E+00
  4.430  0.463E+00  0.461E+00
  4.440  0.468E+00  0.466E+00
  4.450  0.473E+00  0.472E+00
  4.460  0.480E+00  0.478E+00
  4.470  0.486E+00  0.484E+00
  4.480  0.493E+00  0.491E+00
  4.490  0.500E+00  0.498E+00
  4.500  0.508E+00  0.506E+00
  4.510  0.516E+00  0.514E+00
  4.520  0.523E+00  0.521E+00
  4.530  0.530E+00  0.528E+00
  4.540  0.537E+00  0.535E+00
  4.550  0.543E+00  0.541E+00
  4.560  0.548E+00  0.546E+00
  4.570  0.552E+00  0.550E+00
  4.580  0.555E+00  0.552E+00
  4.590  0.556E+00  0.554E+00
  4.600  0.556E+00  0.554E+00
  4.610  0.555E+00  0.553E+00
  4.620  0.552E+00  0.550E+00
  4.630  0.548E+00  0.546E+00
  4.640  0.543E+00  0.541E+00
  4.650  0.536E+00  0.534E+00
  4.660  0.529E+00  0.527E+00
  4.670  0.520E+00  0.518E+00
  4.680  0.511E+00  0.510E+00
  4.690  0.502E+00  0.500E+00
  4.700  0.493E+00  0.491E+00
  4.710  0.483E+00  0.481E+00
  4.720  0.474E+00  0.472E+00
  4.730  0.464E+00  0.463E+00
  4.740  0.456E+00  0.454E+00
  4.750  0.448E+00  0.446E+00
  4.760  0.440E+00  0.438E+00
  4.770  0.433E+00  0.432E+00
  4.780  0.428E+00  0.426E+00
  4.790  0.423E+00  0.422E+00
  4.800  0.420E+00  0.418E+00
  4.810  0.418E+00  0.416E+00
  4.820  0.417E+00  0.415E+00
  4.830  0.418E+00  0.416E+00
  4.840  0.420E+00  0.418E+00
  4.850  0.424E+00  0.423E+00
  4.860  0.430E+00  0.428E+00
  4.870  0.437E+00  0.436E+00
  4.880  0.447E+00  0.445E+00
  4.890  0.458E+00  0.456E+00
  4.900  0.471E+00  0.469E+00
  4.910  0.485E+00  0.484E+00
  4.920  0.501E+00  0.499E+00
  4.930  0.518E+00  0.516E+00
  4.940  0.535E+00  0.533E+00
  4.950  0.553E+00  0.551E+00
  4.960  0.571E+00  0.569E+00
  4.970  0.589E+00  0.587E+00
  4.980  0.606E+00  0.604E+00
  4.990  0.621E+00  0.619E+00
  5.000  0.635E+00  0.633E+00
  5.010  0.647E+00  0.645E+00
  5.020  0.656E+00  0.654E+00
  5.030  0.663E+00  0.661E+00
  5.040  0.667E+00  0.665E+00
  5.050  0.668E+00  0.666E+00
  5.060  0.666E+00  0.663E+00
  5.070  0.660E+00  0.658E+00
  5.080  0.652E+00  0.650E+00
  5.090  0.642E+00  0.640E+00
  5.100  0.629E+00  0.627E+00
  5.110  0.614E+00  0.611E+00
  5.120  0.597E+00  0.595E+00
  5.130  0.579E+00  0.577E+00
  5.140  0.560E+00  0.558E+00
  5.150  0.541E+00  0.539E+00
  5.160  0.522E+00  0.520E+00
  5.170  0.503E+00  0.502E+00
  5.180  0.486E+00  0.484E+00
  5.190  0.469E+00  0.468E+00
  5.200  0.454E+00  0.453E+00
  5.210  0.441E+00  0.440E+00
  5.220  0.430E+00  0.429E+00
  5.230  0.421E+00  0.420E+00
  5.240  0.414E+00  0.413E+00
  5.250  0.409E+00  0.408E+00
  5.260  0.406E+00  0.405E+00
  5.270  0.405E+00  0.404E+00
  5.280  0.406E+00  0.405E+00
  5.290  0.408E+00  0.407E+00
  5.300  0.412E+00  0.410E+00
  5.310  0.416E+00  0.415E+00
  5.320  0.421E+00  0.420E+00
  5.330  0.427E+00  0.426E+00
  5.340  0.433E+00  0.432E+00
  5.350  0.440E+00  0.438E+00
  5.360  0.446E+00  0.445E+00
  5.370  0.453E+00  0.451E+00
  5.380  0.459E+00  0.457E+00
  5.390  0.465E+00  0.463E+00
  5.400  0.471E+00  0.469E+00
  5.410  0.477E+00  0.475E+00
  5.420  0.482E+00  0.481E+00
  5.430  0.488E+00  0.486E+00
  5.440  0.493E+00  0.492E+00
  5.450  0.499E+00  0.497E+00
  5.460  0.504E+00  0.502E+00
  5.470  0.510E+00  0.508E+00
  5.480  0.515E+00  0.513E+00
  5.490  0.521E+00  0.519E+00
  5.500  0.526E+00  0.524E+00
  5.510  0.531E+00  0.530E+00
  5.520  0.537E+00  0.535E+00
  5.530  0.542E+00  0.540E+00
  5.540  0.546E+00  0.545E+00
  5.550  0.551E+00  0.549E+00
  5.560  0.555E+00  0.553E+00
  5.570  0.558E+00  0.557E+00
  5.580  0.562E+00  0.560E+00
  5.590  0.564E+00  0.563E+00
  5.600  0.567E+00  0.565E+00
  5.610  0.569E+00  0.567E+00
  5.620  0.570E+00  0.568E+00
  5.630  0.571E+00  0.569E+00
  5.640  0.571E+00  0.569E+00
  5.650  0.571E+00  0.569E+00
  5.660  0.570E+00  0.568E+00
  5.670  0.569E+00  0.567E+00
  5.680  0.567E+00  0.565E+00
  5.690  0.565E+00  0.563E+00
  5.700  0.562E+00  0.561E+00
  5.710  0.559E+00  0.558E+00
  5.720  0.556E+00  0.555E+00
  5.730  0.553E+00  0.551E+00
  5.740  0.549E+00  0.548E+00
  5.750  0.546E+00  0.544E+00
  5.760  0.542E+00  0.541E+00
  5.770  0.539E+00  0.538E+00
  5.780  0.537E+00  0.535E+00
  5.790  0.534E+00  0.533E+00
  5.800  0.533E+00  0.531E+00
  5.810  0.532E+00  0.530E+00
  5.820  0.531E+00  0.530E+00
  5.830  0.531E+00  0.530E+00
  5.840  0.532E+00  0.531E+00
  5.850  0.534E+00  0.532E+00
  5.860  0.536E+00  0.534E+00
  5.870  0.538E+00  0.536E+00
  5.880  0.541E+00  0.539E+00
  5.890  0.543E+00  0.542E+00
  5.900  0.546E+00  0.545E+00
  5.910  0.549E+00  0.547E+00
  5.920  0.551E+00  0.550E+00
  5.930  0.554E+00  0.552E+00
  5.940  0.556E+00  0.554E+00
  5.950  0.558E+00  0.556E+00
  5.960  0.559E+00  0.557E+00
  5.970  0.560E+00  0.558E+00
  5.980  0.561E+00  0.559E+00
  5.990  0.561E+00  0.559E+00
  6.000  0.561E+00  0.560E+00
  6.010  0.561E+00  0.559E+00
  6.020  0.561E+00  0.559E+00
  6.030  0.561E+00  0.559E+00
  6.040  0.560E+00  0.559E+00
  6.050  0.560E+00  0.558E+00
  6.060  0.560E+00  0.558E+00
  6.070  0.559E+00  0.558E+00
  6.080  0.559E+00  0.557E+00
  6.090  0.558E+00  0.557E+00
  6.100  0.558E+00  0.556E+00
  6.110  0.558E+00  0.556E+00
  6.120  0.557E+00  0.555E+00
  6.130  0.556E+00  0.555E+00
  6.140  0.556E+00  0.554E+00
  6.150  0.555E+00  0.553E+00
  6.160  0.554E+00  0.553E+00
  6.170  0.553E+00  0.552E+00
  6.180  0.553E+00  0.551E+00
  6.190  0.552E+00  0.550E+00
  6.200  0.551E+00  0.549E+00
  6.210  0.550E+00  0.548E+00
  6.220  0.549E+00  0.548E+00
  6.230  0.549E+00  0.547E+00
  6.240  0.548E+00  0.546E+00
  6.250  0.547E+00  0.546E+00
  6.260  0.547E+00  0.546E+00
  6.270  0.547E+00  0.545E+00
  6.280  0.547E+00  0.545E+00
  6.290  0.547E+00  0.545E+00
  6.300  0.547E+00  0.545E+00
  6.310  0.547E+00  0.546E+00
  6.320  0.548E+00  0.546E+00
  6.330  0.548E+00  0.547E+00
  6.340  0.549E+00  0.548E+00
  6.350  0.551E+00  0.549E+00
  6.360  0.552E+00  0.551E+00
  6.370  0.554E+00  0.553E+00
  6.380  0.557E+00  0.556E+00
  6.390  0.560E+00  0.559E+00
  6.400  0.564E+00  0.562E+00
  6.410  0.568E+00  0.566E+00
  6.420  0.572E+00  0.571E+00
  6.430  0.577E+00  0.576E+00
  6.440  0.583E+00  0.582E+00
  6.450  0.589E+00  0.588E+00
  6.460  0.596E+00  0.594E+00
  6.470  0.603E+00  0.601E+00
  6.480  0.610E+00  0.609E+00
  6.490  0.618E+00  0.616E+00
  6.500  0.625E+00  0.624E+00
  6.510  0.633E+00  0.631E+00
  6.520  0.641E+00  0.639E+00
  6.530  0.648E+00  0.646E+00
  6.540  0.655E+00  0.654E+00
  6.550  0.662E+00  0.661E+00
  6.560  0.669E+00  0.667E+00
  6.570  0.675E+00  0.673E+00
  6.580  0.681E+00  0.679E+00
  6.590  0.686E+00  0.684E+00
  6.600  0.691E+00  0.689E+00
  6.610  0.696E+00  0.694E+00
  6.620  0.700E+00  0.698E+00
  6.630  0.703E+00  0.701E+00
  6.640  0.706E+00  0.704E+00
  6.650  0.709E+00  0.707E+00
  6.660  0.711E+00  0.709E+00
  6.670  0.713E+00  0.711E+00
  6.680  0.714E+00  0.712E+00
  6.690  0.715E+00  0.713E+00
  6.700  0.716E+00  0.714E+00
  6.710  0.716E+00  0.714E+00
  6.720  0.715E+00  0.713E+00
  6.730  0.713E+00  0.712E+00
  6.740  0.711E+00  0.710E+00
  6.750  0.709E+00  0.707E+00
  6.760  0.705E+00  0.703E+00
  6.770  0.701E+00  0.699E+00
  6.780  0.696E+00  0.695E+00
  6.790  0.691E+00  0.690E+00
  6.800  0.686E+00  0.684E+00
  6.810  0.680E+00  0.679E+00
  6.820  0.675E+00  0.673E+00
  6.830  0.669E+00  0.667E+00
  6.840  0.664E+00  0.662E+00
  6.850  0.659E+00  0.658E+00
  6.860  0.655E+00  0.653E+00
  6.870  0.652E+00  0.650E+00
  6.880  0.649E+00  0.647E+00
  6.890  0.647E+00  0.646E+00
  6.900  0.646E+00  0.645E+00
  6.910  0.646E+00  0.644E+00
  6.920  0.646E+00  0.645E+00
  6.930  0.648E+00  0.646E+00
  6.940  0.649E+00  0.648E+00
  6.950  0.652E+00  0.650E+00
  6.960  0.654E+00  0.653E+00
  6.970  0.658E+00  0.656E+00
  6.980  0.661E+00  0.659E+00
  6.990  0.665E+00  0.663E+00
  7.000  0.669E+00  0.668E+00
  7.010  0.674E+00  0.672E+00
  7.020  0.679E+00  0.678E+00
  7.030  0.685E+00  0.683E+00
  7.040  0.692E+00  0.690E+00
  7.050  0.700E+00  0.698E+00
  7.060  0.709E+00  0.707E+00
  7.070  0.719E+00  0.717E+00
  7.080  0.730E+00  0.728E+00
  7.090  0.742E+00  0.741E+00
  7.100  0.756E+00  0.754E+00
  7.110  0.771E+00  0.769E+00
  7.120  0.786E+00  0.784E+00
  7.130  0.802E+00  0.800E+00
  7.140  0.818E+00  0.816E+00
  7.150  0.834E+00  0.832E+00
  7.160  0.850E+00  0.848E+00
  7.170  0.864E+00  0.862E+00
  7.180  0.877E+00  0.875E+00
  7.190  0.889E+00  0.887E+00
  7.200  0.898E+00  0.896E+00
  7.210  0.904E+00  0.902E+00
  7.220  0.908E+00  0.906E+00
  7.230  0.909E+00  0.907E+00
  7.240  0.907E+00  0.905E+00
  7.250  0.902E+00  0.900E+00
  7.260  0.895E+00  0.893E+00
  7.270  0.885E+00  0.883E+00
  7.280  0.873E+00  0.871E+00
  7.290  0.859E+00  0.858E+00
  7.300  0.845E+00  0.843E+00
  7.310  0.830E+00  0.828E+00
  7.320  0.815E+00  0.813E+00
  7.330  0.800E+00  0.798E+00
  7.340  0.786E+00  0.784E+00
  7.350  0.773E+00  0.771E+00
  7.360  0.761E+00  0.759E+00
  7.370  0.751E+00  0.750E+00
  7.380  0.743E+00  0.742E+00
  7.390  0.737E+00  0.735E+00
  7.400  0.733E+00  0.731E+00
  7.410  0.730E+00  0.728E+00
  7.420  0.729E+00  0.727E+00
  7.430  0.729E+00  0.728E+00
  7.440  0.731E+00  0.729E+00
  7.450  0.733E+00  0.732E+00
  7.460  0.736E+00  0.735E+00
  7.470  0.740E+00  0.738E+00
  7.480  0.744E+00  0.742E+00
  7.490  0.748E+00  0.746E+00
  7.500  0.752E+00  0.750E+00
  7.510  0.755E+00  0.754E+00
  7.520  0.759E+00  0.757E+00
  7.530  0.762E+00  0.760E+00
  7.540  0.765E+00  0.763E+00
  7.550  0.768E+00  0.766E+00
  7.560  0.770E+00  0.768E+00
  7.570  0.771E+00  0.770E+00
  7.580  0.773E+00  0.771E+00
  7.590  0.774E+00  0.772E+00
  7.600  0.774E+00  0.772E+00
  7.610  0.774E+00  0.772E+00
  7.620  0.774E+00  0.772E+00
  7.630  0.773E+00  0.771E+00
  7.640  0.772E+00  0.770E+00
  7.650  0.771E+00  0.769E+00
  7.660  0.769E+00  0.767E+00
  7.670  0.768E+00  0.766E+00
  7.680  0.766E+00  0.765E+00
  7.690  0.765E+00  0.764E+00
  7.700  0.764E+00  0.763E+00
  7.710  0.764E+00  0.762E+00
  7.720  0.764E+00  0.762E+00
  7.730  0.764E+00  0.763E+00
  7.740  0.766E+00  0.764E+00
  7.750  0.767E+00  0.766E+00
  7.760  0.769E+00  0.767E+00
  7.770  0.771E+00  0.770E+00
  7.780  0.774E+00  0.772E+00
  7.790  0.777E+00  0.775E+00
  7.800  0.780E+00  0.778E+00
  7.810  0.783E+00  0.781E+00
  7.820  0.785E+00  0.784E+00
  7.830  0.788E+00  0.787E+00
  7.840  0.790E+00  0.789E+00
  7.850  0.793E+00  0.791E+00
  7.860  0.794E+00  0.793E+00
  7.870  0.795E+00  0.794E+00
  7.880  0.796E+00  0.795E+00
  7.890  0.796E+00  0.795E+00
  7.900  0.796E+00  0.794E+00
  7.910  0.795E+00  0.793E+00
  7.920  0.793E+00  0.791E+00
  7.930  0.791E+00  0.789E+00
  7.940  0.787E+00  0.785E+00
  7.950  0.783E+00  0.781E+00
  7.960  0.777E+00  0.776E+00
  7.970  0.771E+00  0.769E+00
  7.980  0.764E+00  0.762E+00
  7.990  0.756E+00  0.754E+00
  8.000  0.746E+00  0.745E+00
  8.010  0.737E+00  0.735E+00
  8.020  0.726E+00  0.724E+00
  8.030  0.715E+00  0.714E+00
  8.040  0.704E+00  0.702E+00
  8.050  0.693E+00  0.691E+00
  8.060  0.682E+00  0.680E+00
  8.070  0.672E+00  0.670E+00
  8.080  0.662E+00  0.661E+00
  8.090  0.654E+00  0.652E+00
  8.100  0.646E+00  0.645E+00
  8.110  0.641E+00  0.639E+00
  8.120  0.637E+00  0.635E+00
  8.130  0.635E+00  0.633E+00
  8.140  0.635E+00  0.634E+00
  8.150  0.638E+00  0.636E+00
  8.160  0.642E+00  0.641E+00
  8.170  0.649E+00  0.648E+00
  8.180  0.658E+00  0.656E+00
  8.190  0.669E+00  0.667E+00
  8.200  0.681E+00  0.679E+00
  8.210  0.694E+00  0.693E+00
  8.220  0.709E+00  0.707E+00
  8.230  0.724E+00  0.722E+00
  8.240  0.738E+00  0.737E+00
  8.250  0.753E+00  0.751E+00
  8.260  0.766E+00  0.765E+00
  8.270  0.779E+00  0.777E+00
  8.280  0.789E+00  0.788E+00
  8.290  0.798E+00  0.797E+00
  8.300  0.805E+00  0.804E+00
  8.310  0.810E+00  0.809E+00
  8.320  0.813E+00  0.811E+00
  8.330  0.814E+00  0.812E+00
  8.340  0.813E+00  0.811E+00
  8.350  0.811E+00  0.809E+00
  8.360  0.807E+00  0.806E+00
  8.370  0.803E+00  0.801E+00
  8.380  0.798E+00  0.796E+00
  8.390  0.793E+00  0.791E+00
  8.400  0.788E+00  0.786E+00
  8.410  0.783E+00  0.782E+00
  8.420  0.779E+00  0.778E+00
  8.430  0.776E+00  0.774E+00
  8.440  0.773E+00  0.771E+00
  8.450  0.770E+00  0.769E+00
  8.460  0.768E+00  0.767E+00
  8.470  0.767E+00  0.765E+00
  8.480  0.765E+00  0.763E+00
  8.490  0.763E+00  0.761E+00
  8.500  0.760E+00  0.758E+00
  8.510  0.757E+00  0.755E+00
  8.520  0.752E+00  0.750E+00
  8.530  0.747E+00  0.745E+00
  8.540  0.740E+00  0.739E+00
  8.550  0.733E+00  0.731E+00
  8.560  0.724E+00  0.723E+00
  8.570  0.715E+00  0.714E+00
  8.580  0.705E+00  0.704E+00
  8.590  0.695E+00  0.694E+00
  8.600  0.685E+00  0.684E+00
  8.610  0.675E+00  0.674E+00
  8.620  0.666E+00  0.665E+00
  8.630  0.658E+00  0.656E+00
  8.640  0.650E+00  0.649E+00
  8.650  0.644E+00  0.642E+00
  8.660  0.639E+00  0.638E+00
  8.670  0.636E+00  0.634E+00
  8.680  0.634E+00  0.632E+00
  8.690  0.633E+00  0.632E+00
  8.700  0.634E+00  0.633E+00
  8.710  0.636E+00  0.635E+00
  8.720  0.640E+00  0.638E+00
  8.730  0.644E+00  0.642E+00
  8.740  0.649E+00  0.647E+00
  8.750  0.654E+00  0.653E+00
  8.760  0.660E+00  0.658E+00
  8.770  0.666E+00  0.664E+00
  8.780  0.672E+00  0.670E+00
  8.790  0.678E+00  0.676E+00
  8.800  0.683E+00  0.682E+00
  8.810  0.688E+00  0.687E+00
  8.820  0.693E+00  0.691E+00
  8.830  0.697E+00  0.695E+00
  8.840  0.700E+00  0.699E+00
  8.850  0.704E+00  0.702E+00
  8.860  0.706E+00  0.705E+00
  8.870  0.708E+00  0.707E+00
  8.880  0.710E+00  0.709E+00
  8.890  0.712E+00  0.711E+00
  8.900  0.714E+00  0.713E+00
  8.910  0.716E+00  0.715E+00
  8.920  0.719E+00  0.717E+00
  8.930  0.721E+00  0.720E+00
  8.940  0.724E+00  0.722E+00
  8.950  0.727E+00  0.726E+00
  8.960  0.731E+00  0.730E+00
  8.970  0.735E+00  0.734E+00
  8.980  0.740E+00  0.738E+00
  8.990  0.744E+00  0.742E+00
  9.000  0.749E+00  0.747E+00
  9.010  0.753E+00  0.751E+00
  9.020  0.756E+00  0.755E+00
  9.030  0.759E+00  0.758E+00
  9.040  0.762E+00  0.760E+00
  9.050  0.763E+00  0.761E+00
  9.060  0.763E+00  0.761E+00
  9.070  0.761E+00  0.759E+00
  9.080  0.758E+00  0.757E+00
  9.090  0.754E+00  0.752E+00
  9.100  0.748E+00  0.747E+00
  9.110  0.741E+00  0.740E+00
  9.120  0.733E+00  0.731E+00
  9.130  0.724E+00  0.722E+00
  9.140  0.713E+00  0.711E+00
  9.150  0.702E+00  0.700E+00
  9.160  0.690E+00  0.688E+00
  9.170  0.678E+00  0.676E+00
  9.180  0.665E+00  0.664E+00
  9.190  0.653E+00  0.652E+00
  9.200  0.641E+00  0.640E+00
  9.210  0.630E+00  0.629E+00
  9.220  0.620E+00  0.619E+00
  9.230  0.611E+00  0.610E+00
  9.240  0.603E+00  0.602E+00
  9.250  0.597E+00  0.596E+00
  9.260  0.592E+00  0.591E+00
  9.270  0.588E+00  0.587E+00
  9.280  0.587E+00  0.585E+00
  9.290  0.586E+00  0.585E+00
  9.300  0.588E+00  0.586E+00
  9.310  0.590E+00  0.589E+00
  9.320  0.594E+00  0.593E+00
  9.330  0.599E+00  0.598E+00
  9.340  0.605E+00  0.604E+00
  9.350  0.612E+00  0.611E+00
  9.360  0.620E+00  0.618E+00
  9.370  0.628E+00  0.627E+00
  9.380  0.637E+00  0.635E+00
  9.390  0.646E+00  0.644E+00
  9.400  0.655E+00  0.653E+00
  9.410  0.664E+00  0.662E+00
  9.420  0.673E+00  0.671E+00
  9.430  0.681E+00  0.680E+00
  9.440  0.690E+00  0.688E+00
  9.450  0.698E+00  0.696E+00
  9.460  0.705E+00  0.704E+00
  9.470  0.712E+00  0.710E+00
  9.480  0.718E+00  0.716E+00
  9.490  0.723E+00  0.721E+00
  9.500  0.727E+00  0.725E+00
  9.510  0.730E+00  0.729E+00
  9.520  0.732E+00  0.730E+00
  9.530  0.733E+00  0.731E+00
  9.540  0.733E+00  0.731E+00
  9.550  0.731E+00  0.729E+00
  9.560  0.728E+00  0.726E+00
  9.570  0.724E+00  0.723E+00
  9.580  0.720E+00  0.718E+00
  9.590  0.714E+00  0.712E+00
  9.600  0.707E+00  0.706E+00
  9.610  0.700E+00  0.698E+00
  9.620  0.693E+00  0.691E+00
  9.630  0.685E+00  0.683E+00
  9.640  0.677E+00  0.675E+00
  9.650  0.670E+00  0.668E+00
  9.660  0.662E+00  0.661E+00
  9.670  0.656E+00  0.654E+00
  9.680  0.650E+00  0.649E+00
  9.690  0.646E+00  0.644E+00
  9.700  0.642E+00  0.640E+00
  9.710  0.640E+00  0.638E+00
  9.720  0.639E+00  0.637E+00
  9.730  0.639E+00  0.638E+00
  9.740  0.641E+00  0.639E+00
  9.750  0.644E+00  0.642E+00
  9.760  0.648E+00  0.646E+00
  9.770  0.652E+00  0.651E+00
  9.780  0.657E+00  0.656E+00
  9.790  0.663E+00  0.661E+00
  9.800  0.668E+00  0.667E+00
  9.810  0.673E+00  0.672E+00
  9.820  0.677E+00  0.676E+00
  9.830  0.681E+00  0.679E+00
  9.840  0.682E+00  0.681E+00
  9.850  0.683E+00  0.681E+00
  9.860  0.682E+00  0.680E+00
  9.870  0.679E+00  0.677E+00
  9.880  0.674E+00  0.673E+00
  9.890  0.668E+00  0.667E+00
  9.900  0.661E+00  0.659E+00
  9.910  0.652E+00  0.651E+00
  9.920  0.643E+00  0.642E+00
  9.930  0.634E+00  0.633E+00
  9.940  0.625E+00  0.623E+00
  9.950  0.616E+00  0.614E+00
  9.960  0.608E+00  0.606E+00
  9.970  0.601E+00  0.599E+00
  9.980  0.595E+00  0.594E+00
  9.990  0.591E+00  0.589E+00
 10.000  0.588E+00  0.587E+00
 10.010  0.588E+00  0.586E+00
 10.020  0.589E+00  0.587E+00
 10.030  0.591E+00  0.590E+00
 10.040  0.595E+00  0.594E+00
 10.050  0.600E+00  0.599E+00
 10.060  0.607E+00  0.605E+00
 10.070  0.613E+00  0.612E+00
 10.080  0.620E+00  0.619E+00
 10.090  0.628E+00  0.626E+00
 10.100  0.634E+00  0.633E+00
 10.110  0.641E+00  0.639E+00
 10.120  0.646E+00  0.645E+00
 10.130  0.651E+00  0.649E+00
 10.140  0.654E+00  0.653E+00
 10.150  0.657E+00  0.655E+00
 10.160  0.658E+00  0.656E+00
 10.170  0.658E+00  0.656E+00
 10.180  0.656E+00  0.655E+00
 10.190  0.654E+00  0.653E+00
 10.200  0.651E+00  0.649E+00
 10.210  0.647E+00  0.646E+00
 10.220  0.643E+00  0.641E+00
 10.230  0.638E+00  0.636E+00
 10.240  0.632E+00  0.631E+00
 10.250  0.627E+00  0.625E+00
 10.260  0.622E+00  0.620E+00
 10.270  0.616E+00  0.615E+00
 10.280  0.611E+00  0.610E+00
 10.290  0.606E+00  0.605E+00
 10.300  0.602E+00  0.600E+00
 10.310  0.597E+00  0.596E+00
 10.320  0.594E+00  0.592E+00
 10.330  0.591E+00  0.589E+00
 10.340  0.588E+00  0.586E+00
 10.350  0.586E+00  0.584E+00
 10.360  0.584E+00  0.583E+00
 10.370  0.583E+00  0.582E+00
 10.380  0.583E+00  0.582E+00
 10.390  0.584E+00  0.582E+00
 10.400  0.585E+00  0.583E+00
 10.410  0.587E+00  0.585E+00
 10.420  0.589E+00  0.588E+00
 10.430  0.593E+00  0.591E+00
 10.440  0.596E+00  0.595E+00
 10.450  0.600E+00  0.599E+00
 10.460  0.605E+00  0.603E+00
 10.470  0.609E+00  0.608E+00
 10.480  0.614E+00  0.612E+00
 10.490  0.618E+00  0.616E+00
 10.500  0.622E+00  0.620E+00
 10.510  0.625E+00  0.624E+00
 10.520  0.628E+00  0.626E+00
 10.530  0.629E+00  0.628E+00
 10.540  0.630E+00  0.628E+00
 10.550  0.629E+00  0.627E+00
 10.560  0.627E+00  0.625E+00
 10.570  0.623E+00  0.621E+00
 10.580  0.618E+00  0.616E+00
 10.590  0.611E+00  0.609E+00
 10.600  0.603E+00  0.601E+00
 10.610  0.594E+00  0.592E+00
 10.620  0.583E+00  0.581E+00
 10.630  0.571E+00  0.570E+00
 10.640  0.559E+00  0.557E+00
 10.650  0.546E+00  0.544E+00
 10.660  0.532E+00  0.530E+00
 10.670  0.518E+00  0.516E+00
 10.680  0.503E+00  0.502E+00
 10.690  0.489E+00  0.487E+00
 10.700  0.474E+00  0.473E+00
 10.710  0.460E+00  0.459E+00
 10.720  0.446E+00  0.445E+00
 10.730  0.433E+00  0.432E+00
 10.740  0.420E+00  0.419E+00
 10.750  0.408E+00  0.407E+00
 10.760  0.397E+00  0.396E+00
 10.770  0.386E+00  0.385E+00
 10.780  0.377E+00  0.376E+00
 10.790  0.369E+00  0.368E+00
 10.800  0.362E+00  0.361E+00
 10.810  0.356E+00  0.355E+00
 10.820  0.352E+00  0.351E+00
 10.830  0.350E+00  0.349E+00
 10.840  0.348E+00  0.347E+00
 10.850  0.349E+00  0.348E+00
 10.860  0.350E+00  0.350E+00
 10.870  0.354E+00  0.353E+00
 10.880  0.358E+00  0.357E+00
 10.890  0.363E+00  0.362E+00
 10.900  0.370E+00  0.369E+00
 10.910  0.377E+00  0.375E+00
 10.920  0.384E+00  0.383E+00
 10.930  0.391E+00  0.390E+00
 10.940  0.398E+00  0.397E+00
 10.950  0.405E+00  0.403E+00
 10.960  0.410E+00  0.409E+00
 10.970  0.415E+00  0.414E+00
 10.980  0.418E+00  0.417E+00
 10.990  0.420E+00  0.419E+00
 11.000  0.421E+00  0.419E+00
 11.010  0.419E+00  0.418E+00
 11.020  0.417E+00  0.415E+00
 11.030  0.412E+00  0.411E+00
 11.040  0.407E+00  0.405E+00
 11.050  0.400E+00  0.399E+00
 11.060  0.392E+00  0.391E+00
 11.070  0.383E+00  0.382E+00
 11.080  0.374E+00  0.373E+00
 11.090  0.364E+00  0.363E+00
 11.100  0.354E+00  0.353E+00
 11.110  0.344E+00  0.343E+00
 11.120  0.334E+00  0.333E+00
 11.130  0.325E+00  0.324E+00
 11.140  0.317E+00  0.316E+00
 11.150  0.309E+00  0.308E+00
 11.160  0.302E+00  0.301E+00
 11.170  0.296E+00  0.295E+00
 11.180  0.291E+00  0.290E+00
 11.190  0.287E+00  0.286E+00
 11.200  0.284E+00  0.283E+00
 11.210  0.281E+00  0.281E+00
 11.220  0.281E+00  0.280E+00
 11.230  0.281E+00  0.280E+00
 11.240  0.282E+00  0.281E+00
 11.250  0.284E+00  0.283E+00
 11.260  0.287E+00  0.286E+00
 11.270  0.290E+00  0.289E+00
 11.280  0.295E+00  0.294E+00
 11.290  0.300E+00  0.299E+00
 11.300  0.305E+00  0.304E+00
 11.310  0.311E+00  0.310E+00
 11.320  0.317E+00  0.316E+00
 11.330  0.323E+00  0.322E+00
 11.340  0.329E+00  0.328E+00
 11.350  0.334E+00  0.333E+00
 11.360  0.339E+00  0.338E+00
 11.370  0.343E+00  0.342E+00
 11.380  0.346E+00  0.345E+00
 11.390  0.348E+00  0.347E+00
 11.400  0.349E+00  0.348E+00
 11.410  0.349E+00  0.348E+00
 11.420  0.348E+00  0.347E+00
 11.430  0.346E+00  0.345E+00
 11.440  0.343E+00  0.342E+00
 11.450  0.339E+00  0.337E+00
 11.460  0.334E+00  0.332E+00
 11.470  0.328E+00  0.327E+00
 11.480  0.321E+00  0.320E+00
 11.490  0.314E+00  0.313E+00
 11.500  0.307E+00  0.306E+00
 11.510  0.299E+00  0.298E+00
 11.520  0.291E+00  0.290E+00
 11.530  0.283E+00  0.283E+00
 11.540  0.276E+00  0.275E+00
 11.550  0.268E+00  0.267E+00
 11.560  0.260E+00  0.259E+00
 11.570  0.253E+00  0.252E+00
 11.580  0.246E+00  0.245E+00
 11.590  0.239E+00  0.239E+00
 11.600  0.233E+00  0.232E+00
 11.610  0.227E+00  0.227E+00
 11.620  0.222E+00  0.221E+00
 11.630  0.218E+00  0.217E+00
 11.640  0.214E+00  0.213E+00
 11.650  0.210E+00  0.210E+00
 11.660  0.208E+00  0.207E+00
 11.670  0.206E+00  0.205E+00
 11.680  0.205E+00  0.204E+00
 11.690  0.204E+00  0.204E+00
 11.700  0.205E+00  0.204E+00
 11.710  0.206E+00  0.205E+00
 11.720  0.208E+00  0.207E+00
 11.730  0.210E+00  0.209E+00
 11.740  0.213E+00  0.212E+00
 11.750  0.216E+00  0.215E+00
 11.760  0.219E+00  0.218E+00
 11.770  0.223E+00  0.222E+00
 11.780  0.226E+00  0.225E+00
 11.790  0.230E+00  0.229E+00
 11.800  0.233E+00  0.232E+00
 11.810  0.235E+00  0.234E+00
 11.820  0.238E+00  0.237E+00
 11.830  0.239E+00  0.239E+00
 11.840  0.241E+00  0.240E+00
 11.850  0.241E+00  0.240E+00
 11.860  0.241E+00  0.240E+00
 11.870  0.240E+00  0.240E+00
 11.880  0.239E+00  0.238E+00
 11.890  0.237E+00  0.236E+00
 11.900  0.234E+00  0.233E+00
 11.910  0.231E+00  0.230E+00
 11.920  0.227E+00  0.226E+00
 11.930  0.222E+00  0.221E+00
 11.940  0.217E+00  0.216E+00
 11.950  0.211E+00  0.211E+00
 11.960  0.206E+00  0.205E+00
 11.970  0.200E+00  0.199E+00
 11.980  0.193E+00  0.193E+00
 11.990  0.187E+00  0.187E+00
 12.000  0.181E+00  0.181E+00
 12.010  0.176E+00  0.175E+00
 12.020  0.171E+00  0.170E+00
 12.030  0.166E+00  0.165E+00
 12.040  0.162E+00  0.162E+00
 12.050  0.159E+00  0.159E+00
 12.060  0.157E+00  0.157E+00
 12.070  0.156E+00  0.156E+00
 12.080  0.156E+00  0.155E+00
 12.090  0.157E+00  0.156E+00
 12.100  0.159E+00  0.158E+00
 12.110  0.162E+00  0.161E+00
 12.120  0.165E+00  0.165E+00
 12.130  0.170E+00  0.169E+00
 12.140  0.174E+00  0.174E+00
 12.150  0.179E+00  0.178E+00
 12.160  0.184E+00  0.183E+00
 12.170  0.189E+00  0.188E+00
 12.180  0.193E+00  0.192E+00
 12.190  0.197E+00  0.196E+00
 12.200  0.201E+00  0.200E+00
 12.210  0.203E+00  0.202E+00
 12.220  0.205E+00  0.204E+00
 12.230  0.206E+00  0.205E+00
 12.240  0.206E+00  0.205E+00
 12.250  0.205E+00  0.204E+00
 12.260  0.203E+00  0.202E+00
 12.270  0.201E+00  0.200E+00
 12.280  0.198E+00  0.197E+00
 12.290  0.194E+00  0.193E+00
 12.300  0.190E+00  0.189E+00
 12.310  0.185E+00  0.184E+00
 12.320  0.180E+00  0.179E+00
 12.330  0.175E+00  0.174E+00
 12.340  0.170E+00  0.169E+00
 12.350  0.165E+00  0.164E+00
 12.360  0.160E+00  0.159E+00
 12.370  0.155E+00  0.154E+00
 12.380  0.150E+00  0.149E+00
 12.390  0.145E+00  0.144E+00
 12.400  0.140E+00  0.140E+00
 12.410  0.136E+00  0.136E+00
 12.420  0.132E+00  0.131E+00
 12.430  0.128E+00  0.128E+00
 12.440  0.125E+00  0.124E+00
 12.450  0.122E+00  0.121E+00
 12.460  0.119E+00  0.118E+00
 12.470  0.116E+00  0.116E+00
 12.480  0.114E+00  0.114E+00
 12.490  0.113E+00  0.112E+00
 12.500  0.111E+00  0.111E+00
 12.510  0.111E+00  0.110E+00
 12.520  0.110E+00  0.110E+00
 12.530  0.111E+00  0.110E+00
 12.540  0.111E+00  0.111E+00
 12.550  0.113E+00  0.112E+00
 12.560  0.114E+00  0.113E+00
 12.570  0.116E+00  0.115E+00
 12.580  0.118E+00  0.117E+00
 12.590  0.120E+00  0.119E+00
 12.600  0.122E+00  0.121E+00
 12.610  0.124E+00  0.123E+00
 12.620  0.126E+00  0.125E+00
 12.630  0.127E+00  0.127E+00
 12.640  0.128E+00  0.128E+00
 12.650  0.129E+00  0.128E+00
 12.660  0.129E+00  0.128E+00
 12.670  0.128E+00  0.128E+00
 12.680  0.127E+00  0.127E+00
 12.690  0.126E+00  0.125E+00
 12.700  0.123E+00  0.123E+00
 12.710  0.120E+00  0.120E+00
 12.720  0.117E+00  0.117E+00
 12.730  0.114E+00  0.113E+00
 12.740  0.110E+00  0.110E+00
 12.750  0.106E+00  0.106E+00
 12.760  0.103E+00  0.102E+00
 12.770  0.990E-01  0.985E-01
 12.780  0.956E-01  0.951E-01
 12.790  0.926E-01  0.921E-01
 12.800  0.900E-01  0.895E-01
 12.810  0.877E-01  0.873E-01
 12.820  0.860E-01  0.855E-01
 12.830  0.847E-01  0.842E-01
 12.840  0.838E-01  0.833E-01
 12.850  0.833E-01  0.829E-01
 12.860  0.832E-01  0.827E-01
 12.870  0.834E-01  0.829E-01
 12.880  0.838E-01  0.833E-01
 12.890  0.843E-01  0.838E-01
 12.900  0.849E-01  0.844E-01
 12.910  0.854E-01  0.849E-01
 12.920  0.859E-01  0.854E-01
 12.930  0.862E-01  0.857E-01
 12.940  0.863E-01  0.857E-01
 12.950  0.861E-01  0.855E-01
 12.960  0.856E-01  0.851E-01
 12.970  0.847E-01  0.842E-01
 12.980  0.836E-01  0.831E-01
 12.990  0.821E-01  0.816E-01
 13.000  0.803E-01  0.798E-01
 13.010  0.782E-01  0.777E-01
 13.020  0.758E-01  0.754E-01
 13.030  0.733E-01  0.728E-01
 13.040  0.705E-01  0.701E-01
 13.050  0.677E-01  0.672E-01
 13.060  0.647E-01  0.643E-01
 13.070  0.618E-01  0.614E-01
 13.080  0.589E-01  0.585E-01
 13.090  0.561E-01  0.557E-01
 13.100  0.534E-01  0.530E-01
 13.110  0.508E-01  0.505E-01
 13.120  0.484E-01  0.480E-01
 13.130  0.461E-01  0.458E-01
 13.140  0.439E-01  0.436E-01
 13.150  0.419E-01  0.417E-01
 13.160  0.400E-01  0.398E-01
 13.170  0.382E-01  0.380E-01
 13.180  0.365E-01  0.363E-01
 13.190  0.349E-01  0.346E-01
 13.200  0.332E-01  0.330E-01
 13.210  0.316E-01  0.314E-01
 13.220  0.299E-01  0.297E-01
 13.230  0.282E-01  0.280E-01
 13.240  0.265E-01  0.264E-01
 13.250  0.248E-01  0.246E-01
 13.260  0.231E-01  0.229E-01
 13.270  0.213E-01  0.212E-01
 13.280  0.195E-01  0.194E-01
 13.290  0.178E-01  0.177E-01
 13.300  0.161E-01  0.160E-01
 13.310  0.145E-01  0.144E-01
 13.320  0.129E-01  0.128E-01
 13.330  0.114E-01  0.113E-01
 13.340  0.100E-01  0.995E-02
 13.350  0.872E-02  0.866E-02
 13.360  0.753E-02  0.748E-02
 13.370  0.646E-02  0.641E-02
 13.380  0.549E-02  0.545E-02
 13.390  0.463E-02  0.460E-02
 13.400  0.388E-02  0.385E-02
 13.410  0.322E-02  0.320E-02
 13.420  0.265E-02  0.264E-02
 13.430  0.217E-02  0.215E-02
 13.440  0.176E-02  0.175E-02
 13.450  0.142E-02  0.141E-02
 13.460  0.113E-02  0.112E-02
 13.470  0.897E-03  0.891E-03
 13.480  0.705E-03  0.701E-03
 13.490  0.550E-03  0.547E-03
 13.500  0.426E-03  0.423E-03
 13.510  0.327E-03  0.325E-03
 13.520  0.249E-03  0.247E-03
 13.530  0.188E-03  0.187E-03
 13.540  0.141E-03  0.140E-03
 13.550  0.105E-03  0.104E-03
 13.560  0.771E-04  0.766E-04
 13.570  0.563E-04  0.559E-04
 13.580  0.408E-04  0.405E-04
 13.590  0.293E-04  0.291E-04
 13.600  0.208E-04  0.207E-04
 13.610  0.147E-04  0.146E-04
 13.620  0.102E-04  0.102E-04
 13.630  0.708E-05  0.703E-05
 13.640  0.485E-05  0.482E-05
 13.650  0.329E-05  0.327E-05
 13.660  0.221E-05  0.220E-05
 13.670  0.147E-05  0.146E-05
 13.680  0.971E-06  0.964E-06
 13.690  0.634E-06  0.629E-06
 13.700  0.409E-06  0.406E-06
 13.710  0.262E-06  0.260E-06
 13.720  0.166E-06  0.165E-06
 13.730  0.104E-06  0.103E-06
 13.740  0.645E-07  0.640E-07
 13.750  0.396E-07  0.393E-07
 13.760  0.241E-07  0.239E-07
 13.770  0.145E-07  0.144E-07
 13.780  0.862E-08  0.856E-08
 13.790  0.508E-08  0.504E-08
 13.800  0.296E-08  0.294E-08
 13.810  0.171E-08  0.169E-08
 13.820  0.974E-09  0.967E-09
 13.830  0.550E-09  0.546E-09
 13.840  0.307E-09  0.305E-09
 13.850  0.170E-09  0.169E-09
 13.860  0.930E-10  0.923E-10
 13.870  0.503E-10  0.500E-10
 13.880  0.270E-10  0.268E-10
 13.890  0.143E-10  0.142E-10
 13.900  0.742E-11  0.737E-11
 13.910  0.385E-11  0.382E-11
 13.920  0.198E-11  0.196E-11
 13.930  0.100E-11  0.997E-12
 13.940  0.505E-12  0.501E-12
 13.950  0.251E-12  0.249E-12
 13.960  0.123E-12  0.123E-12
 13.970  0.601E-13  0.596E-13
 13.980  0.289E-13  0.287E-13
 13.990  0.138E-13  0.137E-13
 14.000  0.000E+00  0.000E+00
 14.010  0.000E+00  0.000E+00
 14.020  0.000E+00  0.000E+00
 14.030  0.000E+00  0.000E+00
 14.040  0.000E+00  0.000E+00
 14.050  0.000E+00  0.000E+00
 14.060  0.000E+00  0.000E+00
 14.070  0.000E+00  0.000E+00
 14.080  0.000E+00  0.000E+00
 14.090  0.000E+00  0.000E+00
 14.100  0.000E+00  0.000E+00
 14.110  0.000E+00  0.000E+00
 14.120  0.000E+00  0.000E+00
 14.130  0.000E+00  0.000E+00
 14.140  0.000E+00  0.000E+00
 14.150  0.000E+00  0.000E+00
 14.160  0.000E+00  0.000E+00
 14.170  0.000E+00  0.000E+00
 14.180  0.000E+00  0.000E+00
 14.190  0.000E+00  0.000E+00
 14.200  0.000E+00  0.000E+00
 14.210  0.000E+00  0.000E+00
 14.220  0.000E+00  0.000E+00
 14.230  0.000E+00  0.000E+00
 14.240  0.000E+00  0.000E+00
 14.250  0.000E+00  0.000E+00
 14.260  0.000E+00  0.000E+00
 14.270  0.000E+00  0.000E+00
 14.280  0.000E+00  0.000E+00
 14.290  0.000E+00  0.000E+00
 14.300  0.000E+00  0.000E+00
 14.310  0.000E+00  0.000E+00
 14.320  0.000E+00  0.000E+00
 14.330  0.000E+00  0.000E+00
 14.340  0.000E+00  0.000E+00
 14.350  0.000E+00  0.000E+00
 14.360  0.000E+00  0.000E+00
 14.370  0.000E+00  0.000E+00
 14.380  0.000E+00  0.000E+00
 14.390  0.000E+00  0.000E+00
 14.400  0.000E+00  0.000E+00
 14.410  0.000E+00  0.000E+00
 14.420  0.000E+00  0.000E+00
 14.430  0.000E+00  0.000E+00
 14.440  0.000E+00  0.000E+00
 14.450  0.000E+00  0.000E+00
 14.460  0.000E+00  0.000E+00
 14.470  0.000E+00  0.000E+00
 14.480  0.000E+00  0.000E+00
 14.490  0.000E+00  0.000E+00
 14.500  0.000E+00  0.000E+00
 14.510  0.000E+00  0.000E+00
 14.520  0.000E+00  0.000E+00
 14.530  0.000E+00  0.000E+00
 14.540  0.000E+00  0.000E+00
 14.550  0.000E+00  0.000E+00
 14.560  0.000E+00  0.000E+00
 14.570  0.000E+00  0.000E+00
 14.580  0.000E+00  0.000E+00
 14.590  0.000E+00  0.000E+00
 14.600  0.000E+00  0.000E+00
 14.610  0.000E+00  0.000E+00
 14.620  0.000E+00  0.000E+00
 14.630  0.000E+00  0.000E+00
 14.640  0.000E+00  0.000E+00
 14.650  0.000E+00  0.000E+00
 14.660  0.000E+00  0.000E+00
 14.670  0.000E+00  0.000E+00
 14.680  0.000E+00  0.000E+00
 14.690  0.000E+00  0.000E+00
 14.700  0.000E+00  0.000E+00
 14.710  0.000E+00  0.000E+00
 14.720  0.000E+00  0.000E+00
 14.730  0.000E+00  0.000E+00
 14.740  0.000E+00  0.000E+00
 14.750  0.000E+00  0.000E+00
 14.760  0.000E+00  0.000E+00
 14.770  0.000E+00  0.000E+00
 14.780  0.000E+00  0.000E+00
 14.790  0.000E+00  0.000E+00
 14.800  0.000E+00  0.000E+00
 14.810  0.000E+00  0.000E+00
 14.820  0.000E+00  0.000E+00
 14.830  0.000E+00  0.000E+00
 14.840  0.000E+00  0.000E+00
 14.850  0.000E+00  0.000E+00
 14.860  0.000E+00  0.000E+00
 14.870  0.000E+00  0.000E+00
 14.880  0.000E+00  0.000E+00
 14.890  0.000E+00  0.000E+00
 14.900  0.000E+00  0.000E+00
 14.910  0.000E+00  0.000E+00
 14.920  0.000E+00  0.000E+00
 14.930  0.000E+00  0.000E+00
 14.940  0.000E+00  0.000E+00
 14.950  0.000E+00  0.000E+00
 14.960  0.000E+00  0.000E+00
 14.970  0.000E+00  0.000E+00
 14.980  0.000E+00  0.000E+00
 14.990  0.000E+00  0.000E+00
 15.000  0.000E+00  0.000E+00
 15.010  0.000E+00  0.000E+00
 15.020  0.000E+00  0.000E+00
 15.030  0.000E+00  0.000E+00
 15.040  0.000E+00  0.000E+00
 15.050  0.000E+00  0.000E+00
 15.060  0.000E+00  0.000E+00
 15.070  0.000E+00  0.000E+00
 15.080  0.000E+00  0.000E+00
 15.090  0.000E+00  0.000E+00
 15.100  0.000E+00  0.000E+00
 15.110  0.000E+00  0.000E+00
 15.120  0.000E+00  0.000E+00
 15.130  0.000E+00  0.000E+00
 15.140  0.000E+00  0.000E+00
 15.150  0.000E+00  0.000E+00
 15.160  0.000E+00  0.000E+00
 15.170  0.000E+00  0.000E+00
 15.180  0.000E+00  0.000E+00
 15.190  0.000E+00  0.000E+00
 15.200  0.000E+00  0.000E+00
 15.210  0.000E+00  0.000E+00
 15.220  0.000E+00  0.000E+00
 15.230  0.000E+00  0.000E+00
 15.240  0.000E+00  0.000E+00
 15.250  0.000E+00  0.000E+00
 15.260  0.000E+00  0.000E+00
 15.270  0.000E+00  0.000E+00
 15.280  0.000E+00  0.000E+00
 15.290  0.000E+00  0.000E+00
 15.300  0.000E+00  0.000E+00
 15.310  0.000E+00  0.000E+00
 15.320  0.000E+00  0.000E+00
 15.330  0.000E+00  0.000E+00
 15.340  0.000E+00  0.000E+00
 15.350  0.000E+00  0.000E+00
 15.360  0.000E+00  0.000E+00
 15.370  0.000E+00  0.000E+00
 15.380  0.000E+00  0.000E+00
 15.390  0.000E+00  0.000E+00
 15.400  0.000E+00  0.000E+00
 15.410  0.000E+00  0.000E+00
 15.420  0.000E+00  0.000E+00
 15.430  0.000E+00  0.000E+00
 15.440  0.000E+00  0.000E+00
 15.450  0.000E+00  0.000E+00
 15.460  0.000E+00  0.000E+00
 15.470  0.000E+00  0.000E+00
 15.480  0.000E+00  0.000E+00
 15.490  0.000E+00  0.000E+00
 15.500  0.000E+00  0.000E+00
 15.510  0.000E+00  0.000E+00
 15.520  0.000E+00  0.000E+00
 15.530  0.000E+00  0.000E+00
 15.540  0.000E+00  0.000E+00
 15.550  0.000E+00  0.000E+00
 15.560  0.000E+00  0.000E+00
 15.570  0.000E+00  0.000E+00
 15.580  0.000E+00  0.000E+00
 15.590  0.000E+00  0.000E+00
 15.600  0.000E+00  0.000E+00
 15.610  0.000E+00  0.000E+00
 15.620  0.000E+00  0.000E+00
 15.630  0.000E+00  0.000E+00
 15.640  0.000E+00  0.000E+00
 15.650  0.000E+00  0.000E+00
 15.660  0.000E+00  0.000E+00
 15.670  0.000E+00  0.000E+00
 15.680  0.000E+00  0.000E+00
 15.690  0.000E+00  0.000E+00
 15.700  0.000E+00  0.000E+00
 15.710  0.000E+00  0.000E+00
 15.720  0.000E+00  0.000E+00
 15.730  0.000E+00  0.000E+00
 15.740  0.000E+00  0.000E+00
 15.750  0.000E+00  0.000E+00
 15.760  0.000E+00  0.000E+00
 15.770  0.000E+00  0.000E+00
 15.780  0.000E+00  0.000E+00
 15.790  0.000E+00  0.000E+00
 15.800  0.000E+00  0.000E+00
 15.810  0.000E+00  0.000E+00
 15.820  0.000E+00  0.000E+00
 15.830  0.000E+00  0.000E+00
 15.840  0.000E+00  0.000E+00
 15.850  0.000E+00  0.000E+00
 15.860  0.000E+00  0.000E+00
 15.870  0.000E+00  0.000E+00
 15.880  0.000E+00  0.000E+00
 15.890  0.000E+00  0.000E+00
 15.900  0.000E+00  0.000E+00
 15.910  0.000E+00  0.000E+00
 15.920  0.000E+00  0.000E+00
 15.930  0.000E+00  0.000E+00
 15.940  0.000E+00  0.000E+00
 15.950  0.000E+00  0.000E+00
 15.960  0.000E+00  0.000E+00
 15.970  0.000E+00  0.000E+00
 15.980  0.000E+00  0.000E+00
 15.990  0.000E+00  0.000E+00
 16.000  0.000E+00  0.000E+00
 16.010  0.000E+00  0.000E+00
 16.020  0.000E+00  0.000E+00
 16.030  0.000E+00  0.000E+00
 16.040  0.000E+00  0.000E+00
 16.050  0.000E+00  0.000E+00
 16.060  0.000E+00  0.000E+00
 16.070  0.000E+00  0.000E+00
 16.080  0.000E+00  0.000E+00
 16.090  0.000E+00  0.000E+00
 16.100  0.000E+00  0.000E+00
 16.110  0.000E+00  0.000E+00
 16.120  0.000E+00  0.000E+00
 16.130  0.000E+00  0.000E+00
 16.140  0.000E+00  0.000E+00
 16.150  0.000E+00  0.000E+00
 16.160  0.000E+00  0.000E+00
 16.170  0.000E+00  0.000E+00
 16.180  0.000E+00  0.000E+00
 16.190  0.000E+00  0.000E+00
 16.200  0.000E+00  0.000E+00
 16.210  0.000E+00  0.000E+00
 16.220  0.000E+00  0.000E+00
 16.230  0.000E+00  0.000E+00
 16.240  0.000E+00  0.000E+00
 16.250  0.000E+00  0.000E+00
 16.260  0.000E+00  0.000E+00
 16.270  0.000E+00  0.000E+00
 16.280  0.000E+00  0.000E+00
 16.290  0.000E+00  0.000E+00
 16.300  0.000E+00  0.000E+00
 16.310  0.000E+00  0.000E+00
 16.320  0.000E+00  0.000E+00
 16.330  0.000E+00  0.000E+00
 16.340  0.000E+00  0.000E+00
 16.350  0.000E+00  0.000E+00
 16.360  0.000E+00  0.000E+00
 16.370  0.000E+00  0.000E+00
 16.380  0.000E+00  0.000E+00
 16.390  0.000E+00  0.000E+00
 16.400  0.000E+00  0.000E+00
 16.410  0.000E+00  0.000E+00
 16.420  0.000E+00  0.000E+00
 16.430  0.000E+00  0.000E+00
 16.440  0.000E+00  0.000E+00
 16.450  0.000E+00  0.000E+00
 16.460  0.000E+00  0.000E+00
 16.470  0.000E+00  0.000E+00
 16.480  0.000E+00  0.000E+00
 16.490  0.000E+00  0.000E+00
 16.500  0.000E+00  0.000E+00
 16.510  0.000E+00  0.000E+00
 16.520  0.000E+00  0.000E+00
 16.530  0.000E+00  0.000E+00
 16.540  0.000E+00  0.000E+00
 16.550  0.000E+00  0.000E+00
 16.560  0.000E+00  0.000E+00
 16.570  0.000E+00  0.000E+00
 16.580  0.000E+00  0.000E+00
 16.590  0.000E+00  0.000E+00
 16.600  0.000E+00  0.000E+00
 16.610  0.000E+00  0.000E+00
 16.620  0.000E+00  0.000E+00
 16.630  0.000E+00  0.000E+00
 16.640  0.000E+00  0.000E+00
 16.650  0.000E+00  0.000E+00
 16.660  0.000E+00  0.000E+00
 16.670  0.000E+00  0.000E+00
 16.680  0.000E+00  0.000E+00
 16.690  0.000E+00  0.000E+00
 16.700  0.000E+00  0.000E+00
 16.710  0.000E+00  0.000E+00
 16.720  0.000E+00  0.000E+00
 16.730  0.000E+00  0.000E+00
 16.740  0.000E+00  0.000E+00
 16.750  0.409E-13  0.381E-13
 16.760  0.855E-13  0.796E-13
 16.770  0.177E-12  0.165E-12
 16.780  0.361E-12  0.336E-12
 16.790  0.730E-12  0.680E-12
 16.800  0.149E-11  0.139E-11
 16.810  0.298E-11  0.277E-11
 16.820  0.584E-11  0.544E-11
 16.830  0.113E-10  0.106E-10
 16.840  0.217E-10  0.203E-10
 16.850  0.413E-10  0.385E-10
 16.860  0.776E-10  0.723E-10
 16.870  0.144E-09  0.134E-09
 16.880  0.265E-09  0.247E-09
 16.890  0.483E-09  0.450E-09
 16.900  0.870E-09  0.810E-09
 16.910  0.155E-08  0.144E-08
 16.920  0.273E-08  0.254E-08
 16.930  0.476E-08  0.444E-08
 16.940  0.822E-08  0.766E-08
 16.950  0.140E-07  0.131E-07
 16.960  0.237E-07  0.221E-07
 16.970  0.397E-07  0.370E-07
 16.980  0.657E-07  0.612E-07
 16.990  0.108E-06  0.100E-06
 17.000  0.174E-06  0.162E-06
 17.010  0.280E-06  0.261E-06
 17.020  0.444E-06  0.414E-06
 17.030  0.697E-06  0.649E-06
 17.040  0.108E-05  0.101E-05
 17.050  0.167E-05  0.155E-05
 17.060  0.254E-05  0.236E-05
 17.070  0.382E-05  0.356E-05
 17.080  0.570E-05  0.531E-05
 17.090  0.842E-05  0.784E-05
 17.100  0.123E-04  0.115E-04
 17.110  0.178E-04  0.166E-04
 17.120  0.255E-04  0.237E-04
 17.130  0.361E-04  0.336E-04
 17.140  0.507E-04  0.472E-04
 17.150  0.704E-04  0.656E-04
 17.160  0.968E-04  0.902E-04
 17.170  0.132E-03  0.123E-03
 17.180  0.178E-03  0.166E-03
 17.190  0.238E-03  0.221E-03
 17.200  0.314E-03  0.293E-03
 17.210  0.412E-03  0.383E-03
 17.220  0.534E-03  0.497E-03
 17.230  0.686E-03  0.639E-03
 17.240  0.874E-03  0.814E-03
 17.250  0.110E-02  0.103E-02
 17.260  0.138E-02  0.128E-02
 17.270  0.171E-02  0.159E-02
 17.280  0.210E-02  0.195E-02
 17.290  0.256E-02  0.238E-02
 17.300  0.309E-02  0.287E-02
 17.310  0.370E-02  0.344E-02
 17.320  0.440E-02  0.409E-02
 17.330  0.519E-02  0.483E-02
 17.340  0.608E-02  0.565E-02
 17.350  0.707E-02  0.658E-02
 17.360  0.816E-02  0.760E-02
 17.370  0.937E-02  0.872E-02
 17.380  0.107E-01  0.995E-02
 17.390  0.121E-01  0.113E-01
 17.400  0.137E-01  0.127E-01
 17.410  0.154E-01  0.143E-01
 17.420  0.172E-01  0.160E-01
 17.430  0.192E-01  0.178E-01
 17.440  0.213E-01  0.198E-01
 17.450  0.235E-01  0.219E-01
 17.460  0.259E-01  0.241E-01
 17.470  0.285E-01  0.265E-01
 17.480  0.312E-01  0.290E-01
 17.490  0.341E-01  0.316E-01
 17.500  0.371E-01  0.344E-01
 17.510  0.402E-01  0.374E-01
 17.520  0.435E-01  0.404E-01
 17.530  0.469E-01  0.436E-01
 17.540  0.504E-01  0.468E-01
 17.550  0.540E-01  0.501E-01
 17.560  0.577E-01  0.535E-01
 17.570  0.614E-01  0.570E-01
 17.580  0.651E-01  0.605E-01
 17.590  0.689E-01  0.639E-01
 17.600  0.726E-01  0.674E-01
 17.610  0.763E-01  0.708E-01
 17.620  0.800E-01  0.741E-01
 17.630  0.835E-01  0.774E-01
 17.640  0.870E-01  0.806E-01
 17.650  0.903E-01  0.836E-01
 17.660  0.935E-01  0.865E-01
 17.670  0.965E-01  0.893E-01
 17.680  0.993E-01  0.919E-01
 17.690  0.102E+00  0.944E-01
 17.700  0.104E+00  0.966E-01
 17.710  0.107E+00  0.986E-01
 17.720  0.109E+00  0.100E+00
 17.730  0.110E+00  0.102E+00
 17.740  0.112E+00  0.103E+00
 17.750  0.113E+00  0.105E+00
 17.760  0.114E+00  0.106E+00
 17.770  0.115E+00  0.106E+00
 17.780  0.116E+00  0.107E+00
 17.790  0.116E+00  0.108E+00
 17.800  0.117E+00  0.108E+00
 17.810  0.118E+00  0.109E+00
 17.820  0.118E+00  0.109E+00
 17.830  0.119E+00  0.110E+00
 17.840  0.120E+00  0.111E+00
 17.850  0.121E+00  0.112E+00
 17.860  0.122E+00  0.113E+00
 17.870  0.124E+00  0.114E+00
 17.880  0.126E+00  0.116E+00
 17.890  0.128E+00  0.118E+00
 17.900  0.130E+00  0.120E+00
 17.910  0.133E+00  0.122E+00
 17.920  0.136E+00  0.125E+00
 17.930  0.139E+00  0.128E+00
 17.940  0.143E+00  0.131E+00
 17.950  0.146E+00  0.134E+00
 17.960  0.150E+00  0.137E+00
 17.970  0.153E+00  0.140E+00
 17.980  0.157E+00  0.143E+00
 17.990  0.160E+00  0.146E+00
 18.000  0.164E+00  0.148E+00
 18.010  0.167E+00  0.151E+00
 18.020  0.170E+00  0.154E+00
 18.030  0.173E+00  0.157E+00
 18.040  0.176E+00  0.160E+00
 18.050  0.180E+00  0.163E+00
 18.060  0.183E+00  0.166E+00
 18.070  0.187E+00  0.169E+00
 18.080  0.190E+00  0.173E+00
 18.090  0.194E+00  0.177E+00
 18.100  0.198E+00  0.180E+00
 18.110  0.202E+00  0.184E+00
 18.120  0.207E+00  0.189E+00
 18.130  0.211E+00  0.193E+00
 18.140  0.216E+00  0.197E+00
 18.150  0.220E+00  0.201E+00
 18.160  0.225E+00  0.205E+00
 18.170  0.229E+00  0.209E+00
 18.180  0.232E+00  0.212E+00
 18.190  0.236E+00  0.216E+00
 18.200  0.239E+00  0.218E+00
 18.210  0.242E+00  0.221E+00
 18.220  0.244E+00  0.223E+00
 18.230  0.246E+00  0.224E+00
 18.240  0.248E+00  0.226E+00
 18.250  0.249E+00  0.227E+00
 18.260  0.250E+00  0.227E+00
 18.270  0.251E+00  0.228E+00
 18.280  0.252E+00  0.228E+00
 18.290  0.253E+00  0.228E+00
 18.300  0.254E+00  0.229E+00
 18.310  0.254E+00  0.229E+00
 18.320  0.255E+00  0.230E+00
 18.330  0.257E+00  0.230E+00
 18.340  0.258E+00  0.231E+00
 18.350  0.259E+00  0.232E+00
 18.360  0.261E+00  0.234E+00
 18.370  0.263E+00  0.235E+00
 18.380  0.265E+00  0.237E+00
 18.390  0.267E+00  0.239E+00
 18.400  0.269E+00  0.241E+00
 18.410  0.271E+00  0.243E+00
 18.420  0.273E+00  0.244E+00
 18.430  0.275E+00  0.246E+00
 18.440  0.278E+00  0.248E+00
 18.450  0.280E+00  0.250E+00
 18.460  0.282E+00  0.252E+00
 18.470  0.284E+00  0.254E+00
 18.480  0.287E+00  0.257E+00
 18.490  0.290E+00  0.259E+00
 18.500  0.292E+00  0.261E+00
 18.510  0.295E+00  0.264E+00
 18.520  0.299E+00  0.266E+00
 18.530  0.302E+00  0.269E+00
 18.540  0.306E+00  0.273E+00
 18.550  0.311E+00  0.276E+00
 18.560  0.315E+00  0.280E+00
 18.570  0.320E+00  0.285E+00
 18.580  0.325E+00  0.289E+00
 18.590  0.330E+00  0.294E+00
 18.600  0.336E+00  0.299E+00
 18.610  0.341E+00  0.304E+00
 18.620  0.346E+00  0.309E+00
 18.630  0.351E+00  0.314E+00
 18.640  0.356E+00  0.319E+00
 18.650  0.360E+00  0.323E+00
 18.660  0.364E+00  0.327E+00
 18.670  0.367E+00  0.331E+00
 18.680  0.370E+00  0.334E+00
 18.690  0.372E+00  0.336E+00
 18.700  0.374E+00  0.338E+00
 18.710  0.375E+00  0.339E+00
 18.720  0.375E+00  0.340E+00
 18.730  0.375E+00  0.341E+00
 18.740  0.375E+00  0.341E+00
 18.750  0.375E+00  0.340E+00
 18.760  0.374E+00  0.340E+00
 18.770  0.374E+00  0.339E+00
 18.780  0.373E+00  0.339E+00
 18.790  0.373E+00  0.338E+00
 18.800  0.373E+00  0.337E+00
 18.810  0.373E+00  0.337E+00
 18.820  0.373E+00  0.337E+00
 18.830  0.373E+00  0.337E+00
 18.840  0.374E+00  0.337E+00
 18.850  0.375E+00  0.337E+00
 18.860  0.376E+00  0.338E+00
 18.870  0.377E+00  0.339E+00
 18.880  0.378E+00  0.340E+00
 18.890  0.379E+00  0.341E+00
 18.900  0.381E+00  0.342E+00
 18.910  0.381E+00  0.343E+00
 18.920  0.382E+00  0.344E+00
 18.930  0.383E+00  0.345E+00
 18.940  0.383E+00  0.345E+00
 18.950  0.384E+00  0.346E+00
 18.960  0.384E+00  0.346E+00
 18.970  0.384E+00  0.347E+00
 18.980  0.384E+00  0.347E+00
 18.990  0.384E+00  0.347E+00
 19.000  0.384E+00  0.347E+00
 19.010  0.384E+00  0.347E+00
 19.020  0.385E+00  0.348E+00
 19.030  0.386E+00  0.349E+00
 19.040  0.388E+00  0.350E+00
 19.050  0.391E+00  0.351E+00
 19.060  0.394E+00  0.354E+00
 19.070  0.398E+00  0.357E+00
 19.080  0.403E+00  0.361E+00
 19.090  0.409E+00  0.366E+00
 19.100  0.416E+00  0.371E+00
 19.110  0.424E+00  0.378E+00
 19.120  0.433E+00  0.385E+00
 19.130  0.443E+00  0.394E+00
 19.140  0.454E+00  0.403E+00
 19.150  0.465E+00  0.412E+00
 19.160  0.476E+00  0.422E+00
 19.170  0.488E+00  0.433E+00
 19.180  0.499E+00  0.443E+00
 19.190  0.510E+00  0.453E+00
 19.200  0.521E+00  0.462E+00
 19.210  0.531E+00  0.471E+00
 19.220  0.539E+00  0.479E+00
 19.230  0.547E+00  0.486E+00
 19.240  0.553E+00  0.492E+00
 19.250  0.558E+00  0.496E+00
 19.260  0.561E+00  0.499E+00
 19.270  0.563E+00  0.501E+00
 19.280  0.564E+00  0.502E+00
 19.290  0.563E+00  0.501E+00
 19.300  0.560E+00  0.499E+00
 19.310  0.557E+00  0.496E+00
 19.320  0.553E+00  0.492E+00
 19.330  0.548E+00  0.488E+00
 19.340  0.542E+00  0.483E+00
 19.350  0.536E+00  0.477E+00
 19.360  0.529E+00  0.471E+00
 19.370  0.522E+00  0.465E+00
 19.380  0.516E+00  0.459E+00
 19.390  0.509E+00  0.453E+00
 19.400  0.502E+00  0.447E+00
 19.410  0.496E+00  0.442E+00
 19.420  0.489E+00  0.436E+00
 19.430  0.483E+00  0.431E+00
 19.440  0.478E+00  0.426E+00
 19.450  0.473E+00  0.421E+00
 19.460  0.468E+00  0.417E+00
 19.470  0.464E+00  0.413E+00
 19.480  0.460E+00  0.409E+00
 19.490  0.457E+00  0.406E+00
 19.500  0.455E+00  0.404E+00
 19.510  0.454E+00  0.402E+00
 19.520  0.453E+00  0.402E+00
 19.530  0.453E+00  0.401E+00
 19.540  0.454E+00  0.402E+00
 19.550  0.456E+00  0.404E+00
 19.560  0.460E+00  0.406E+00
 19.570  0.464E+00  0.410E+00
 19.580  0.469E+00  0.414E+00
 19.590  0.476E+00  0.419E+00
 19.600  0.483E+00  0.426E+00
 19.610  0.491E+00  0.433E+00
 19.620  0.500E+00  0.441E+00
 19.630  0.510E+00  0.449E+00
 19.640  0.520E+00  0.458E+00
 19.650  0.530E+00  0.468E+00
 19.660  0.540E+00  0.477E+00
 19.670  0.550E+00  0.485E+00
 19.680  0.559E+00  0.494E+00
 19.690  0.568E+00  0.501E+00
 19.700  0.575E+00  0.508E+00
 19.710  0.581E+00  0.514E+00
 19.720  0.586E+00  0.518E+00
 19.730  0.590E+00  0.521E+00
 19.740  0.592E+00  0.523E+00
 19.750  0.592E+00  0.523E+00
 19.760  0.591E+00  0.522E+00
 19.770  0.589E+00  0.520E+00
 19.780  0.586E+00  0.517E+00
 19.790  0.582E+00  0.514E+00
 19.800  0.577E+00  0.509E+00
 19.810  0.572E+00  0.505E+00
 19.820  0.567E+00  0.500E+00
 19.830  0.563E+00  0.496E+00
 19.840  0.558E+00  0.492E+00
 19.850  0.554E+00  0.488E+00
 19.860  0.551E+00  0.485E+00
 19.870  0.548E+00  0.482E+00
 19.880  0.546E+00  0.481E+00
 19.890  0.545E+00  0.480E+00
 19.900  0.545E+00  0.479E+00
 19.910  0.545E+00  0.479E+00
 19.920  0.545E+00  0.480E+00
 19.930  0.546E+00  0.480E+00
 19.940  0.547E+00  0.481E+00
 19.950  0.547E+00  0.482E+00
 19.960  0.548E+00  0.482E+00
 19.970  0.548E+00  0.483E+00
 19.980  0.548E+00  0.483E+00
 19.990  0.548E+00  0.482E+00
 20.000  0.547E+00  0.482E+00
 20.010  0.545E+00  0.480E+00
 20.020  0.544E+00  0.479E+00
 20.030  0.542E+00  0.478E+00
 20.040  0.540E+00  0.476E+00
 20.050  0.538E+00  0.475E+00
 20.060  0.536E+00  0.473E+00
 20.070  0.535E+00  0.472E+00
 20.080  0.534E+00  0.472E+00
 20.090  0.534E+00  0.472E+00
 20.100  0.534E+00  0.473E+00
 20.110  0.536E+00  0.475E+00
 20.120  0.538E+00  0.477E+00
 20.130  0.542E+00  0.481E+00
 20.140  0.546E+00  0.485E+00
 20.150  0.552E+00  0.490E+00
 20.160  0.558E+00  0.496E+00
 20.170  0.565E+00  0.503E+00
 20.180  0.573E+00  0.510E+00
 20.190  0.582E+00  0.517E+00
 20.200  0.590E+00  0.525E+00
 20.210  0.599E+00  0.533E+00
 20.220  0.608E+00  0.541E+00
 20.230  0.616E+00  0.549E+00
 20.240  0.625E+00  0.556E+00
 20.250  0.633E+00  0.563E+00
 20.260  0.640E+00  0.569E+00
 20.270  0.647E+00  0.575E+00
 20.280  0.653E+00  0.580E+00
 20.290  0.658E+00  0.585E+00
 20.300  0.663E+00  0.589E+00
 20.310  0.667E+00  0.592E+00
 20.320  0.670E+00  0.594E+00
 20.330  0.673E+00  0.596E+00
 20.340  0.675E+00  0.597E+00
 20.350  0.677E+00  0.597E+00
 20.360  0.678E+00  0.597E+00
 20.370  0.679E+00  0.597E+00
 20.380  0.679E+00  0.596E+00
 20.390  0.679E+00  0.594E+00
 20.400  0.679E+00  0.593E+00
 20.410  0.679E+00  0.591E+00
 20.420  0.679E+00  0.589E+00
 20.430  0.678E+00  0.586E+00
 20.440  0.677E+00  0.584E+00
 20.450  0.677E+00  0.581E+00
 20.460  0.676E+00  0.579E+00
 20.470  0.675E+00  0.576E+00
 20.480  0.675E+00  0.574E+00
 20.490  0.674E+00  0.572E+00
 20.500  0.674E+00  0.571E+00
 20.510  0.674E+00  0.569E+00
 20.520  0.674E+00  0.569E+00
 20.530  0.674E+00  0.569E+00
 20.540  0.675E+00  0.569E+00
 20.550  0.677E+00  0.570E+00
 20.560  0.678E+00  0.573E+00
 20.570  0.681E+00  0.575E+00
 20.580  0.684E+00  0.579E+00
 20.590  0.688E+00  0.584E+00
 20.600  0.692E+00  0.589E+00
 20.610  0.697E+00  0.595E+00
 20.620  0.703E+00  0.602E+00
 20.630  0.709E+00  0.610E+00
 20.640  0.716E+00  0.618E+00
 20.650  0.723E+00  0.626E+00
 20.660  0.731E+00  0.634E+00
 20.670  0.738E+00  0.643E+00
 20.680  0.746E+00  0.652E+00
 20.690  0.754E+00  0.660E+00
 20.700  0.761E+00  0.668E+00
 20.710  0.768E+00  0.676E+00
 20.720  0.775E+00  0.683E+00
 20.730  0.781E+00  0.690E+00
 20.740  0.787E+00  0.696E+00
 20.750  0.792E+00  0.701E+00
 20.760  0.796E+00  0.705E+00
 20.770  0.800E+00  0.709E+00
 20.780  0.804E+00  0.712E+00
 20.790  0.807E+00  0.714E+00
 20.800  0.810E+00  0.716E+00
 20.810  0.812E+00  0.717E+00
 20.820  0.815E+00  0.719E+00
 20.830  0.817E+00  0.719E+00
 20.840  0.819E+00  0.720E+00
 20.850  0.821E+00  0.721E+00
 20.860  0.824E+00  0.722E+00
 20.870  0.826E+00  0.723E+00
 20.880  0.828E+00  0.723E+00
 20.890  0.830E+00  0.724E+00
 20.900  0.832E+00  0.725E+00
 20.910  0.834E+00  0.725E+00
 20.920  0.835E+00  0.725E+00
 20.930  0.836E+00  0.724E+00
 20.940  0.835E+00  0.723E+00
 20.950  0.833E+00  0.721E+00
 20.960  0.830E+00  0.717E+00
 20.970  0.826E+00  0.713E+00
 20.980  0.820E+00  0.707E+00
 20.990  0.812E+00  0.700E+00
 21.000  0.803E+00  0.691E+00
 21.010  0.792E+00  0.682E+00
 21.020  0.779E+00  0.671E+00
 21.030  0.766E+00  0.659E+00
 21.040  0.752E+00  0.647E+00
 21.050  0.737E+00  0.635E+00
 21.060  0.723E+00  0.622E+00
 21.070  0.708E+00  0.610E+00
 21.080  0.695E+00  0.598E+00
 21.090  0.682E+00  0.588E+00
 21.100  0.672E+00  0.579E+00
 21.110  0.663E+00  0.572E+00
 21.120  0.657E+00  0.567E+00
 21.130  0.653E+00  0.564E+00
 21.140  0.653E+00  0.564E+00
 21.150  0.655E+00  0.567E+00
 21.160  0.661E+00  0.572E+00
 21.170  0.669E+00  0.580E+00
 21.180  0.681E+00  0.590E+00
 21.190  0.696E+00  0.604E+00
 21.200  0.713E+00  0.619E+00
 21.210  0.732E+00  0.636E+00
 21.220  0.753E+00  0.655E+00
 21.230  0.775E+00  0.676E+00
 21.240  0.799E+00  0.697E+00
 21.250  0.822E+00  0.718E+00
 21.260  0.846E+00  0.740E+00
 21.270  0.870E+00  0.762E+00
 21.280  0.892E+00  0.783E+00
 21.290  0.914E+00  0.803E+00
 21.300  0.934E+00  0.822E+00
 21.310  0.953E+00  0.839E+00
 21.320  0.970E+00  0.855E+00
 21.330  0.986E+00  0.870E+00
 21.340  0.100E+01  0.882E+00
 21.350  0.101E+01  0.894E+00
 21.360  0.102E+01  0.903E+00
 21.370  0.103E+01  0.912E+00
 21.380  0.104E+01  0.919E+00
 21.390  0.105E+01  0.924E+00
 21.400  0.105E+01  0.929E+00
 21.410  0.106E+01  0.933E+00
 21.420  0.106E+01  0.936E+00
 21.430  0.107E+01  0.939E+00
 21.440  0.107E+01  0.941E+00
 21.450  0.108E+01  0.943E+00
 21.460  0.108E+01  0.944E+00
 21.470  0.108E+01  0.946E+00
 21.480  0.109E+01  0.947E+00
 21.490  0.109E+01  0.948E+00
 21.500  0.110E+01  0.949E+00
 21.510  0.110E+01  0.950E+00
 21.520  0.110E+01  0.950E+00
 21.530  0.110E+01  0.951E+00
 21.540  0.110E+01  0.951E+00
 21.550  0.111E+01  0.951E+00
 21.560  0.111E+01  0.950E+00
 21.570  0.111E+01  0.949E+00
 21.580  0.111E+01  0.948E+00
 21.590  0.110E+01  0.946E+00
 21.600  0.110E+01  0.943E+00
 21.610  0.110E+01  0.941E+00
 21.620  0.109E+01  0.937E+00
 21.630  0.109E+01  0.933E+00
 21.640  0.108E+01  0.929E+00
 21.650  0.108E+01  0.925E+00
 21.660  0.107E+01  0.920E+00
 21.670  0.107E+01  0.915E+00
 21.680  0.106E+01  0.911E+00
 21.690  0.106E+01  0.906E+00
 21.700  0.105E+01  0.902E+00
 21.710  0.105E+01  0.898E+00
 21.720  0.104E+01  0.894E+00
 21.730  0.104E+01  0.891E+00
 21.740  0.103E+01  0.888E+00
 21.750  0.103E+01  0.885E+00
 21.760  0.102E+01  0.882E+00
 21.770  0.102E+01  0.880E+00
 21.780  0.101E+01  0.877E+00
 21.790  0.101E+01  0.875E+00
 21.800  0.100E+01  0.873E+00
 21.810  0.999E+00  0.871E+00
 21.820  0.995E+00  0.868E+00
 21.830  0.991E+00  0.866E+00
 21.840  0.986E+00  0.864E+00
 21.850  0.983E+00  0.862E+00
 21.860  0.980E+00  0.861E+00
 21.870  0.977E+00  0.860E+00
 21.880  0.975E+00  0.860E+00
 21.890  0.975E+00  0.861E+00
 21.900  0.975E+00  0.862E+00
 21.910  0.977E+00  0.865E+00
 21.920  0.981E+00  0.869E+00
 21.930  0.986E+00  0.875E+00
 21.940  0.993E+00  0.882E+00
 21.950  0.100E+01  0.890E+00
 21.960  0.101E+01  0.899E+00
 21.970  0.102E+01  0.910E+00
 21.980  0.103E+01  0.921E+00
 21.990  0.105E+01  0.934E+00
 22.000  0.106E+01  0.946E+00
 22.010  0.107E+01  0.959E+00
 22.020  0.109E+01  0.971E+00
 22.030  0.110E+01  0.983E+00
 22.040  0.111E+01  0.994E+00
 22.050  0.112E+01  0.100E+01
 22.060  0.113E+01  0.101E+01
 22.070  0.114E+01  0.102E+01
 22.080  0.114E+01  0.102E+01
 22.090  0.115E+01  0.102E+01
 22.100  0.115E+01  0.102E+01
 22.110  0.114E+01  0.102E+01
 22.120  0.114E+01  0.101E+01
 22.130  0.113E+01  0.100E+01
 22.140  0.112E+01  0.993E+00
 22.150  0.111E+01  0.980E+00
 22.160  0.110E+01  0.966E+00
 22.170  0.108E+01  0.951E+00
 22.180  0.106E+01  0.934E+00
 22.190  0.105E+01  0.917E+00
 22.200  0.103E+01  0.899E+00
 22.210  0.101E+01  0.881E+00
 22.220  0.990E+00  0.863E+00
 22.230  0.973E+00  0.846E+00
 22.240  0.956E+00  0.830E+00
 22.250  0.940E+00  0.814E+00
 22.260  0.925E+00  0.800E+00
 22.270  0.912E+00  0.787E+00
 22.280  0.900E+00  0.776E+00
 22.290  0.890E+00  0.766E+00
 22.300  0.881E+00  0.757E+00
 22.310  0.874E+00  0.750E+00
 22.320  0.869E+00  0.744E+00
 22.330  0.864E+00  0.739E+00
 22.340  0.861E+00  0.735E+00
 22.350  0.858E+00  0.732E+00
 22.360  0.856E+00  0.729E+00
 22.370  0.855E+00  0.727E+00
 22.380  0.853E+00  0.726E+00
 22.390  0.852E+00  0.725E+00
 22.400  0.851E+00  0.724E+00
 22.410  0.850E+00  0.723E+00
 22.420  0.848E+00  0.722E+00
 22.430  0.847E+00  0.721E+00
 22.440  0.845E+00  0.721E+00
 22.450  0.843E+00  0.721E+00
 22.460  0.841E+00  0.721E+00
 22.470  0.840E+00  0.721E+00
 22.480  0.839E+00  0.722E+00
 22.490  0.838E+00  0.724E+00
 22.500  0.838E+00  0.727E+00
 22.510  0.839E+00  0.730E+00
 22.520  0.842E+00  0.735E+00
 22.530  0.846E+00  0.741E+00
 22.540  0.851E+00  0.748E+00
 22.550  0.857E+00  0.756E+00
 22.560  0.865E+00  0.765E+00
 22.570  0.874E+00  0.775E+00
 22.580  0.885E+00  0.786E+00
 22.590  0.897E+00  0.798E+00
 22.600  0.909E+00  0.810E+00
 22.610  0.922E+00  0.822E+00
 22.620  0.936E+00  0.835E+00
 22.630  0.949E+00  0.846E+00
 22.640  0.962E+00  0.858E+00
 22.650  0.975E+00  0.868E+00
 22.660  0.986E+00  0.877E+00
 22.670  0.996E+00  0.885E+00
 22.680  0.100E+01  0.891E+00
 22.690  0.101E+01  0.895E+00
 22.700  0.101E+01  0.897E+00
 22.710  0.102E+01  0.897E+00
 22.720  0.101E+01  0.894E+00
 22.730  0.101E+01  0.889E+00
 22.740  0.101E+01  0.882E+00
 22.750  0.997E+00  0.873E+00
 22.760  0.986E+00  0.862E+00
 22.770  0.972E+00  0.849E+00
 22.780  0.957E+00  0.834E+00
 22.790  0.940E+00  0.818E+00
 22.800  0.922E+00  0.801E+00
 22.810  0.903E+00  0.784E+00
 22.820  0.883E+00  0.765E+00
 22.830  0.863E+00  0.747E+00
 22.840  0.843E+00  0.729E+00
 22.850  0.822E+00  0.710E+00
 22.860  0.803E+00  0.693E+00
 22.870  0.783E+00  0.676E+00
 22.880  0.765E+00  0.660E+00
 22.890  0.747E+00  0.645E+00
 22.900  0.730E+00  0.630E+00
 22.910  0.714E+00  0.617E+00
 22.920  0.699E+00  0.604E+00
 22.930  0.684E+00  0.592E+00
 22.940  0.671E+00  0.580E+00
 22.950  0.657E+00  0.569E+00
 22.960  0.645E+00  0.559E+00
 22.970  0.632E+00  0.549E+00
 22.980  0.620E+00  0.539E+00
 22.990  0.608E+00  0.529E+00
 23.000  0.597E+00  0.520E+00
 23.010  0.585E+00  0.510E+00
 23.020  0.574E+00  0.501E+00
 23.030  0.564E+00  0.492E+00
 23.040  0.554E+00  0.483E+00
 23.050  0.544E+00  0.475E+00
 23.060  0.535E+00  0.467E+00
 23.070  0.527E+00  0.459E+00
 23.080  0.521E+00  0.453E+00
 23.090  0.515E+00  0.447E+00
 23.100  0.512E+00  0.442E+00
 23.110  0.510E+00  0.439E+00
 23.120  0.510E+00  0.438E+00
 23.130  0.513E+00  0.439E+00
 23.140  0.519E+00  0.441E+00
 23.150  0.527E+00  0.446E+00
 23.160  0.538E+00  0.453E+00
 23.170  0.552E+00  0.463E+00
 23.180  0.569E+00  0.475E+00
 23.190  0.588E+00  0.490E+00
 23.200  0.611E+00  0.507E+00
 23.210  0.635E+00  0.526E+00
 23.220  0.662E+00  0.548E+00
 23.230  0.691E+00  0.571E+00
 23.240  0.721E+00  0.595E+00
 23.250  0.752E+00  0.621E+00
 23.260  0.784E+00  0.647E+00
 23.270  0.816E+00  0.674E+00
 23.280  0.848E+00  0.701E+00
 23.290  0.878E+00  0.727E+00
 23.300  0.908E+00  0.753E+00
 23.310  0.937E+00  0.777E+00
 23.320  0.964E+00  0.801E+00
 23.330  0.988E+00  0.822E+00
 23.340  0.101E+01  0.842E+00
 23.350  0.103E+01  0.860E+00
 23.360  0.105E+01  0.876E+00
 23.370  0.107E+01  0.890E+00
 23.380  0.108E+01  0.902E+00
 23.390  0.109E+01  0.912E+00
 23.400  0.110E+01  0.920E+00
 23.410  0.111E+01  0.926E+00
 23.420  0.111E+01  0.930E+00
 23.430  0.111E+01  0.932E+00
 23.440  0.112E+01  0.934E+00
 23.450  0.112E+01  0.933E+00
 23.460  0.112E+01  0.932E+00
 23.470  0.111E+01  0.930E+00
 23.480  0.111E+01  0.927E+00
 23.490  0.111E+01  0.924E+00
 23.500  0.110E+01  0.920E+00
 23.510  0.110E+01  0.915E+00
 23.520  0.109E+01  0.911E+00
 23.530  0.109E+01  0.906E+00
 23.540  0.108E+01  0.900E+00
 23.550  0.107E+01  0.895E+00
 23.560  0.107E+01  0.888E+00
 23.570  0.106E+01  0.882E+00
 23.580  0.105E+01  0.874E+00
 23.590  0.104E+01  0.866E+00
 23.600  0.103E+01  0.857E+00
 23.610  0.102E+01  0.847E+00
 23.620  0.100E+01  0.835E+00
 23.630  0.986E+00  0.823E+00
 23.640  0.969E+00  0.809E+00
 23.650  0.950E+00  0.793E+00
 23.660  0.929E+00  0.776E+00
 23.670  0.907E+00  0.758E+00
 23.680  0.883E+00  0.738E+00
 23.690  0.857E+00  0.718E+00
 23.700  0.831E+00  0.696E+00
 23.710  0.804E+00  0.674E+00
 23.720  0.776E+00  0.652E+00
 23.730  0.748E+00  0.629E+00
 23.740  0.721E+00  0.607E+00
 23.750  0.694E+00  0.585E+00
 23.760  0.669E+00  0.565E+00
 23.770  0.645E+00  0.546E+00
 23.780  0.623E+00  0.528E+00
 23.790  0.603E+00  0.512E+00
 23.800  0.585E+00  0.498E+00
 23.810  0.570E+00  0.486E+00
 23.820  0.557E+00  0.476E+00
 23.830  0.546E+00  0.467E+00
 23.840  0.538E+00  0.461E+00
 23.850  0.531E+00  0.456E+00
 23.860  0.527E+00  0.452E+00
 23.870  0.524E+00  0.449E+00
 23.880  0.522E+00  0.448E+00
 23.890  0.520E+00  0.446E+00
 23.900  0.520E+00  0.445E+00
 23.910  0.519E+00  0.445E+00
 23.920  0.519E+00  0.444E+00
 23.930  0.519E+00  0.442E+00
 23.940  0.518E+00  0.441E+00
 23.950  0.517E+00  0.439E+00
 23.960  0.516E+00  0.436E+00
 23.970  0.514E+00  0.434E+00
 23.980  0.512E+00  0.430E+00
 23.990  0.510E+00  0.427E+00
 24.000  0.508E+00  0.423E+00
 24.010  0.505E+00  0.419E+00
 24.020  0.503E+00  0.416E+00
 24.030  0.500E+00  0.412E+00
 24.040  0.497E+00  0.408E+00
 24.050  0.494E+00  0.404E+00
 24.060  0.492E+00  0.401E+00
 24.070  0.489E+00  0.398E+00
 24.080  0.486E+00  0.395E+00
 24.090  0.484E+00  0.392E+00
 24.100  0.481E+00  0.390E+00
 24.110  0.479E+00  0.388E+00
 24.120  0.476E+00  0.386E+00
 24.130  0.474E+00  0.385E+00
 24.140  0.471E+00  0.384E+00
 24.150  0.469E+00  0.383E+00
 24.160  0.467E+00  0.382E+00
 24.170  0.465E+00  0.382E+00
 24.180  0.463E+00  0.383E+00
 24.190  0.461E+00  0.383E+00
 24.200  0.460E+00  0.384E+00
 24.210  0.458E+00  0.386E+00
 24.220  0.458E+00  0.387E+00
 24.230  0.457E+00  0.389E+00
 24.240  0.457E+00  0.391E+00
 24.250  0.457E+00  0.394E+00
 24.260  0.457E+00  0.396E+00
 24.270  0.457E+00  0.398E+00
 24.280  0.458E+00  0.401E+00
 24.290  0.459E+00  0.403E+00
 24.300  0.461E+00  0.406E+00
 24.310  0.462E+00  0.408E+00
 24.320  0.465E+00  0.410E+00
 24.330  0.467E+00  0.413E+00
 24.340  0.470E+00  0.416E+00
 24.350  0.474E+00  0.419E+00
 24.360  0.478E+00  0.422E+00
 24.370  0.483E+00  0.426E+00
 24.380  0.489E+00  0.430E+00
 24.390  0.495E+00  0.434E+00
 24.400  0.502E+00  0.439E+00
 24.410  0.510E+00  0.445E+00
 24.420  0.517E+00  0.451E+00
 24.430  0.526E+00  0.457E+00
 24.440  0.534E+00  0.463E+00
 24.450  0.543E+00  0.470E+00
 24.460  0.551E+00  0.477E+00
 24.470  0.560E+00  0.484E+00
 24.480  0.568E+00  0.491E+00
 24.490  0.576E+00  0.499E+00
 24.500  0.584E+00  0.506E+00
 24.510  0.592E+00  0.513E+00
 24.520  0.600E+00  0.521E+00
 24.530  0.608E+00  0.529E+00
 24.540  0.616E+00  0.538E+00
 24.550  0.625E+00  0.547E+00
 24.560  0.635E+00  0.556E+00
 24.570  0.645E+00  0.567E+00
 24.580  0.657E+00  0.578E+00
 24.590  0.669E+00  0.591E+00
 24.600  0.684E+00  0.605E+00
 24.610  0.700E+00  0.620E+00
 24.620  0.717E+00  0.636E+00
 24.630  0.736E+00  0.654E+00
 24.640  0.756E+00  0.673E+00
 24.650  0.778E+00  0.692E+00
 24.660  0.800E+00  0.712E+00
 24.670  0.823E+00  0.733E+00
 24.680  0.847E+00  0.753E+00
 24.690  0.870E+00  0.773E+00
 24.700  0.893E+00  0.792E+00
 24.710  0.914E+00  0.810E+00
 24.720  0.934E+00  0.826E+00
 24.730  0.952E+00  0.841E+00
 24.740  0.968E+00  0.852E+00
 24.750  0.981E+00  0.861E+00
 24.760  0.990E+00  0.867E+00
 24.770  0.996E+00  0.870E+00
 24.780  0.998E+00  0.869E+00
 24.790  0.997E+00  0.866E+00
 24.800  0.992E+00  0.858E+00
 24.810  0.984E+00  0.848E+00
 24.820  0.972E+00  0.835E+00
 24.830  0.957E+00  0.819E+00
 24.840  0.939E+00  0.800E+00
 24.850  0.918E+00  0.780E+00
 24.860  0.895E+00  0.758E+00
 24.870  0.871E+00  0.734E+00
 24.880  0.844E+00  0.709E+00
 24.890  0.817E+00  0.683E+00
 24.900  0.789E+00  0.657E+00
 24.910  0.760E+00  0.631E+00
 24.920  0.730E+00  0.605E+00
 24.930  0.701E+00  0.579E+00
 24.940  0.672E+00  0.553E+00
 24.950  0.643E+00  0.528E+00
 24.960  0.615E+00  0.503E+00
 24.970  0.587E+00  0.480E+00
 24.980  0.561E+00  0.457E+00
 24.990  0.535E+00  0.436E+00
 25.000  0.511E+00  0.415E+00
 25.010  0.488E+00  0.396E+00
 25.020  0.466E+00  0.378E+00
 25.030  0.447E+00  0.362E+00
 25.040  0.428E+00  0.347E+00
 25.050  0.412E+00  0.334E+00
 25.060  0.398E+00  0.323E+00
 25.070  0.386E+00  0.313E+00
 25.080  0.376E+00  0.306E+00
 25.090  0.368E+00  0.300E+00
 25.100  0.363E+00  0.296E+00
 25.110  0.359E+00  0.294E+00
 25.120  0.358E+00  0.294E+00
 25.130  0.359E+00  0.296E+00
 25.140  0.362E+00  0.299E+00
 25.150  0.366E+00  0.304E+00
 25.160  0.373E+00  0.311E+00
 25.170  0.381E+00  0.318E+00
 25.180  0.390E+00  0.327E+00
 25.190  0.400E+00  0.337E+00
 25.200  0.411E+00  0.348E+00
 25.210  0.424E+00  0.359E+00
 25.220  0.436E+00  0.371E+00
 25.230  0.450E+00  0.383E+00
 25.240  0.463E+00  0.396E+00
 25.250  0.476E+00  0.408E+00
 25.260  0.489E+00  0.420E+00
 25.270  0.502E+00  0.431E+00
 25.280  0.514E+00  0.442E+00
 25.290  0.526E+00  0.453E+00
 25.300  0.537E+00  0.462E+00
 25.310  0.547E+00  0.471E+00
 25.320  0.556E+00  0.479E+00
 25.330  0.565E+00  0.486E+00
 25.340  0.572E+00  0.493E+00
 25.350  0.579E+00  0.499E+00
 25.360  0.586E+00  0.504E+00
 25.370  0.591E+00  0.509E+00
 25.380  0.597E+00  0.514E+00
 25.390  0.603E+00  0.519E+00
 25.400  0.608E+00  0.524E+00
 25.410  0.614E+00  0.530E+00
 25.420  0.621E+00  0.536E+00
 25.430  0.628E+00  0.543E+00
 25.440  0.636E+00  0.551E+00
 25.450  0.645E+00  0.561E+00
 25.460  0.656E+00  0.571E+00
 25.470  0.667E+00  0.583E+00
 25.480  0.681E+00  0.597E+00
 25.490  0.695E+00  0.612E+00
 25.500  0.711E+00  0.628E+00
 25.510  0.728E+00  0.646E+00
 25.520  0.746E+00  0.664E+00
 25.530  0.765E+00  0.683E+00
 25.540  0.785E+00  0.703E+00
 25.550  0.805E+00  0.723E+00
 25.560  0.825E+00  0.744E+00
 25.570  0.845E+00  0.763E+00
 25.580  0.864E+00  0.783E+00
 25.590  0.883E+00  0.801E+00
 25.600  0.901E+00  0.818E+00
 25.610  0.917E+00  0.834E+00
 25.620  0.932E+00  0.848E+00
 25.630  0.945E+00  0.860E+00
 25.640  0.956E+00  0.871E+00
 25.650  0.966E+00  0.880E+00
 25.660  0.974E+00  0.887E+00
 25.670  0.980E+00  0.892E+00
 25.680  0.985E+00  0.895E+00
 25.690  0.987E+00  0.897E+00
 25.700  0.989E+00  0.897E+00
 25.710  0.989E+00  0.895E+00
 25.720  0.988E+00  0.892E+00
 25.730  0.985E+00  0.888E+00
 25.740  0.982E+00  0.883E+00
 25.750  0.977E+00  0.876E+00
 25.760  0.972E+00  0.869E+00
 25.770  0.965E+00  0.860E+00
 25.780  0.958E+00  0.851E+00
 25.790  0.949E+00  0.841E+00
 25.800  0.940E+00  0.830E+00
 25.810  0.930E+00  0.818E+00
 25.820  0.919E+00  0.806E+00
 25.830  0.907E+00  0.793E+00
 25.840  0.894E+00  0.779E+00
 25.850  0.881E+00  0.765E+00
 25.860  0.867E+00  0.750E+00
 25.870  0.852E+00  0.735E+00
 25.880  0.837E+00  0.720E+00
 25.890  0.821E+00  0.705E+00
 25.900  0.804E+00  0.689E+00
 25.910  0.787E+00  0.673E+00
 25.920  0.770E+00  0.657E+00
 25.930  0.753E+00  0.641E+00
 25.940  0.735E+00  0.625E+00
 25.950  0.717E+00  0.609E+00
 25.960  0.699E+00  0.593E+00
 25.970  0.682E+00  0.578E+00
 25.980  0.664E+00  0.563E+00
 25.990  0.648E+00  0.548E+00
 26.000  0.632E+00  0.534E+00
 26.010  0.616E+00  0.521E+00
 26.020  0.602E+00  0.509E+00
 26.030  0.589E+00  0.497E+00
 26.040  0.577E+00  0.487E+00
 26.050  0.567E+00  0.479E+00
 26.060  0.559E+00  0.472E+00
 26.070  0.552E+00  0.466E+00
 26.080  0.546E+00  0.461E+00
 26.090  0.542E+00  0.458E+00
 26.100  0.540E+00  0.456E+00
 26.110  0.538E+00  0.455E+00
 26.120  0.538E+00  0.455E+00
 26.130  0.538E+00  0.456E+00
 26.140  0.539E+00  0.457E+00
 26.150  0.541E+00  0.459E+00
 26.160  0.542E+00  0.461E+00
 26.170  0.544E+00  0.463E+00
 26.180  0.545E+00  0.464E+00
 26.190  0.546E+00  0.466E+00
 26.200  0.547E+00  0.467E+00
 26.210  0.548E+00  0.468E+00
 26.220  0.548E+00  0.468E+00
 26.230  0.548E+00  0.469E+00
 26.240  0.548E+00  0.469E+00
 26.250  0.548E+00  0.469E+00
 26.260  0.548E+00  0.469E+00
 26.270  0.549E+00  0.470E+00
 26.280  0.550E+00  0.471E+00
 26.290  0.553E+00  0.473E+00
 26.300  0.556E+00  0.476E+00
 26.310  0.561E+00  0.480E+00
 26.320  0.568E+00  0.486E+00
 26.330  0.576E+00  0.492E+00
 26.340  0.586E+00  0.501E+00
 26.350  0.598E+00  0.511E+00
 26.360  0.611E+00  0.522E+00
 26.370  0.627E+00  0.535E+00
 26.380  0.644E+00  0.550E+00
 26.390  0.662E+00  0.566E+00
 26.400  0.682E+00  0.583E+00
 26.410  0.702E+00  0.601E+00
 26.420  0.724E+00  0.620E+00
 26.430  0.746E+00  0.639E+00
 26.440  0.768E+00  0.659E+00
 26.450  0.790E+00  0.678E+00
 26.460  0.811E+00  0.697E+00
 26.470  0.832E+00  0.716E+00
 26.480  0.852E+00  0.733E+00
 26.490  0.870E+00  0.750E+00
 26.500  0.887E+00  0.765E+00
 26.510  0.903E+00  0.780E+00
 26.520  0.917E+00  0.793E+00
 26.530  0.929E+00  0.805E+00
 26.540  0.941E+00  0.816E+00
 26.550  0.950E+00  0.825E+00
 26.560  0.959E+00  0.834E+00
 26.570  0.967E+00  0.842E+00
 26.580  0.974E+00  0.849E+00
 26.590  0.980E+00  0.855E+00
 26.600  0.986E+00  0.862E+00
 26.610  0.991E+00  0.867E+00
 26.620  0.996E+00  0.873E+00
 26.630  0.100E+01  0.878E+00
 26.640  0.101E+01  0.883E+00
 26.650  0.101E+01  0.888E+00
 26.660  0.102E+01  0.893E+00
 26.670  0.102E+01  0.898E+00
 26.680  0.102E+01  0.902E+00
 26.690  0.103E+01  0.906E+00
 26.700  0.103E+01  0.910E+00
 26.710  0.104E+01  0.913E+00
 26.720  0.104E+01  0.916E+00
 26.730  0.104E+01  0.919E+00
 26.740  0.104E+01  0.921E+00
 26.750  0.105E+01  0.924E+00
 26.760  0.105E+01  0.926E+00
 26.770  0.105E+01  0.928E+00
 26.780  0.106E+01  0.930E+00
 26.790  0.106E+01  0.932E+00
 26.800  0.106E+01  0.934E+00
 26.810  0.106E+01  0.935E+00
 26.820  0.106E+01  0.937E+00
 26.830  0.106E+01  0.938E+00
 26.840  0.107E+01  0.939E+00
 26.850  0.107E+01  0.939E+00
 26.860  0.107E+01  0.939E+00
 26.870  0.107E+01  0.939E+00
 26.880  0.106E+01  0.938E+00
 26.890  0.106E+01  0.936E+00
 26.900  0.106E+01  0.933E+00
 26.910  0.106E+01  0.929E+00
 26.920  0.105E+01  0.925E+00
 26.930  0.105E+01  0.920E+00
 26.940  0.104E+01  0.914E+00
 26.950  0.103E+01  0.907E+00
 26.960  0.103E+01  0.899E+00
 26.970  0.102E+01  0.891E+00
 26.980  0.101E+01  0.881E+00
 26.990  0.100E+01  0.872E+00
 27.000  0.990E+00  0.861E+00
 27.010  0.979E+00  0.850E+00
 27.020  0.967E+00  0.838E+00
 27.030  0.955E+00  0.825E+00
 27.040  0.942E+00  0.812E+00
 27.050  0.929E+00  0.799E+00
 27.060  0.915E+00  0.785E+00
 27.070  0.900E+00  0.771E+00
 27.080  0.885E+00  0.756E+00
 27.090  0.870E+00  0.741E+00
 27.100  0.854E+00  0.726E+00
 27.110  0.838E+00  0.711E+00
 27.120  0.822E+00  0.697E+00
 27.130  0.807E+00  0.682E+00
 27.140  0.791E+00  0.668E+00
 27.150  0.776E+00  0.654E+00
 27.160  0.762E+00  0.641E+00
 27.170  0.749E+00  0.629E+00
 27.180  0.736E+00  0.618E+00
 27.190  0.725E+00  0.608E+00
 27.200  0.715E+00  0.600E+00
 27.210  0.706E+00  0.592E+00
 27.220  0.700E+00  0.587E+00
 27.230  0.695E+00  0.582E+00
 27.240  0.691E+00  0.580E+00
 27.250  0.690E+00  0.579E+00
 27.260  0.690E+00  0.579E+00
 27.270  0.692E+00  0.581E+00
 27.280  0.695E+00  0.585E+00
 27.290  0.700E+00  0.589E+00
 27.300  0.706E+00  0.595E+00
 27.310  0.713E+00  0.602E+00
 27.320  0.721E+00  0.609E+00
 27.330  0.729E+00  0.616E+00
 27.340  0.737E+00  0.624E+00
 27.350  0.745E+00  0.631E+00
 27.360  0.752E+00  0.638E+00
 27.370  0.758E+00  0.645E+00
 27.380  0.764E+00  0.650E+00
 27.390  0.769E+00  0.655E+00
 27.400  0.772E+00  0.659E+00
 27.410  0.774E+00  0.662E+00
 27.420  0.775E+00  0.663E+00
 27.430  0.775E+00  0.664E+00
 27.440  0.773E+00  0.664E+00
 27.450  0.771E+00  0.663E+00
 27.460  0.768E+00  0.661E+00
 27.470  0.764E+00  0.659E+00
 27.480  0.760E+00  0.656E+00
 27.490  0.755E+00  0.653E+00
 27.500  0.751E+00  0.650E+00
 27.510  0.747E+00  0.647E+00
 27.520  0.743E+00  0.644E+00
 27.530  0.739E+00  0.642E+00
 27.540  0.737E+00  0.640E+00
 27.550  0.734E+00  0.638E+00
 27.560  0.732E+00  0.637E+00
 27.570  0.731E+00  0.637E+00
 27.580  0.731E+00  0.637E+00
 27.590  0.731E+00  0.637E+00
 27.600  0.732E+00  0.639E+00
 27.610  0.734E+00  0.641E+00
 27.620  0.736E+00  0.643E+00
 27.630  0.740E+00  0.646E+00
 27.640  0.744E+00  0.650E+00
 27.650  0.749E+00  0.656E+00
 27.660  0.756E+00  0.662E+00
 27.670  0.764E+00  0.669E+00
 27.680  0.774E+00  0.678E+00
 27.690  0.785E+00  0.688E+00
 27.700  0.798E+00  0.699E+00
 27.710  0.814E+00  0.713E+00
 27.720  0.831E+00  0.728E+00
 27.730  0.850E+00  0.744E+00
 27.740  0.870E+00  0.762E+00
 27.750  0.893E+00  0.782E+00
 27.760  0.917E+00  0.802E+00
 27.770  0.941E+00  0.824E+00
 27.780  0.967E+00  0.846E+00
 27.790  0.993E+00  0.868E+00
 27.800  0.102E+01  0.891E+00
 27.810  0.104E+01  0.913E+00
 27.820  0.107E+01  0.933E+00
 27.830  0.109E+01  0.953E+00
 27.840  0.111E+01  0.971E+00
 27.850  0.113E+01  0.986E+00
 27.860  0.114E+01  0.100E+01
 27.870  0.115E+01  0.101E+01
 27.880  0.116E+01  0.102E+01
 27.890  0.117E+01  0.102E+01
 27.900  0.117E+01  0.102E+01
 27.910  0.117E+01  0.102E+01
 27.920  0.116E+01  0.102E+01
 27.930  0.116E+01  0.101E+01
 27.940  0.114E+01  0.100E+01
 27.950  0.113E+01  0.989E+00
 27.960  0.112E+01  0.974E+00
 27.970  0.110E+01  0.958E+00
 27.980  0.108E+01  0.939E+00
 27.990  0.106E+01  0.920E+00
 28.000  0.103E+01  0.899E+00
 28.010  0.101E+01  0.878E+00
 28.020  0.986E+00  0.856E+00
 28.030  0.961E+00  0.833E+00
 28.040  0.937E+00  0.811E+00
 28.050  0.913E+00  0.789E+00
 28.060  0.889E+00  0.767E+00
 28.070  0.865E+00  0.745E+00
 28.080  0.842E+00  0.724E+00
 28.090  0.819E+00  0.704E+00
 28.100  0.797E+00  0.684E+00
 28.110  0.775E+00  0.664E+00
 28.120  0.753E+00  0.645E+00
 28.130  0.732E+00  0.626E+00
 28.140  0.712E+00  0.608E+00
 28.150  0.691E+00  0.590E+00
 28.160  0.671E+00  0.572E+00
 28.170  0.651E+00  0.554E+00
 28.180  0.632E+00  0.537E+00
 28.190  0.613E+00  0.521E+00
 28.200  0.595E+00  0.505E+00
 28.210  0.577E+00  0.489E+00
 28.220  0.561E+00  0.475E+00
 28.230  0.545E+00  0.461E+00
 28.240  0.531E+00  0.449E+00
 28.250  0.519E+00  0.438E+00
 28.260  0.509E+00  0.429E+00
 28.270  0.500E+00  0.422E+00
 28.280  0.494E+00  0.416E+00
 28.290  0.490E+00  0.413E+00
 28.300  0.488E+00  0.412E+00
 28.310  0.489E+00  0.412E+00
 28.320  0.492E+00  0.415E+00
 28.330  0.498E+00  0.420E+00
 28.340  0.505E+00  0.427E+00
 28.350  0.514E+00  0.435E+00
 28.360  0.524E+00  0.445E+00
 28.370  0.536E+00  0.456E+00
 28.380  0.549E+00  0.468E+00
 28.390  0.562E+00  0.480E+00
 28.400  0.576E+00  0.492E+00
 28.410  0.589E+00  0.505E+00
 28.420  0.602E+00  0.517E+00
 28.430  0.615E+00  0.529E+00
 28.440  0.626E+00  0.539E+00
 28.450  0.637E+00  0.549E+00
 28.460  0.647E+00  0.558E+00
 28.470  0.655E+00  0.566E+00
 28.480  0.663E+00  0.573E+00
 28.490  0.669E+00  0.578E+00
 28.500  0.674E+00  0.583E+00
 28.510  0.678E+00  0.586E+00
 28.520  0.681E+00  0.588E+00
 28.530  0.683E+00  0.589E+00
 28.540  0.684E+00  0.589E+00
 28.550  0.684E+00  0.588E+00
 28.560  0.683E+00  0.587E+00
 28.570  0.681E+00  0.584E+00
 28.580  0.679E+00  0.582E+00
 28.590  0.676E+00  0.579E+00
 28.600  0.673E+00  0.575E+00
 28.610  0.669E+00  0.572E+00
 28.620  0.666E+00  0.568E+00
 28.630  0.662E+00  0.565E+00
 28.640  0.659E+00  0.562E+00
 28.650  0.656E+00  0.559E+00
 28.660  0.653E+00  0.557E+00
 28.670  0.651E+00  0.556E+00
 28.680  0.650E+00  0.555E+00
 28.690  0.650E+00  0.554E+00
 28.700  0.650E+00  0.554E+00
 28.710  0.650E+00  0.555E+00
 28.720  0.652E+00  0.556E+00
 28.730  0.654E+00  0.558E+00
 28.740  0.656E+00  0.559E+00
 28.750  0.658E+00  0.561E+00
 28.760  0.660E+00  0.562E+00
 28.770  0.662E+00  0.562E+00
 28.780  0.663E+00  0.562E+00
 28.790  0.663E+00  0.562E+00
 28.800  0.663E+00  0.560E+00
 28.810  0.661E+00  0.557E+00
 28.820  0.657E+00  0.553E+00
 28.830  0.652E+00  0.547E+00
 28.840  0.645E+00  0.540E+00
 28.850  0.636E+00  0.531E+00
 28.860  0.625E+00  0.521E+00
 28.870  0.612E+00  0.510E+00
 28.880  0.598E+00  0.497E+00
 28.890  0.582E+00  0.483E+00
 28.900  0.565E+00  0.468E+00
 28.910  0.546E+00  0.453E+00
 28.920  0.526E+00  0.436E+00
 28.930  0.506E+00  0.419E+00
 28.940  0.485E+00  0.402E+00
 28.950  0.463E+00  0.385E+00
 28.960  0.442E+00  0.368E+00
 28.970  0.420E+00  0.351E+00
 28.980  0.399E+00  0.335E+00
 28.990  0.379E+00  0.319E+00
 29.000  0.360E+00  0.304E+00
 29.010  0.341E+00  0.290E+00
 29.020  0.324E+00  0.278E+00
 29.030  0.308E+00  0.266E+00
 29.040  0.293E+00  0.255E+00
 29.050  0.280E+00  0.246E+00
 29.060  0.269E+00  0.238E+00
 29.070  0.258E+00  0.231E+00
 29.080  0.250E+00  0.225E+00
 29.090  0.242E+00  0.220E+00
 29.100  0.236E+00  0.215E+00
 29.110  0.230E+00  0.212E+00
 29.120  0.226E+00  0.209E+00
 29.130  0.222E+00  0.207E+00
 29.140  0.219E+00  0.205E+00
 29.150  0.216E+00  0.203E+00
 29.160  0.214E+00  0.202E+00
 29.170  0.211E+00  0.200E+00
 29.180  0.209E+00  0.198E+00
 29.190  0.206E+00  0.197E+00
 29.200  0.204E+00  0.195E+00
 29.210  0.201E+00  0.192E+00
 29.220  0.199E+00  0.190E+00
 29.230  0.196E+00  0.188E+00
 29.240  0.194E+00  0.186E+00
 29.250  0.192E+00  0.184E+00
 29.260  0.190E+00  0.182E+00
 29.270  0.188E+00  0.181E+00
 29.280  0.188E+00  0.180E+00
 29.290  0.187E+00  0.180E+00
 29.300  0.187E+00  0.180E+00
 29.310  0.188E+00  0.181E+00
 29.320  0.190E+00  0.183E+00
 29.330  0.192E+00  0.185E+00
 29.340  0.194E+00  0.187E+00
 29.350  0.197E+00  0.190E+00
 29.360  0.200E+00  0.193E+00
 29.370  0.204E+00  0.197E+00
 29.380  0.207E+00  0.200E+00
 29.390  0.210E+00  0.203E+00
 29.400  0.213E+00  0.206E+00
 29.410  0.216E+00  0.209E+00
 29.420  0.219E+00  0.211E+00
 29.430  0.220E+00  0.213E+00
 29.440  0.222E+00  0.214E+00
 29.450  0.222E+00  0.215E+00
 29.460  0.222E+00  0.215E+00
 29.470  0.221E+00  0.214E+00
 29.480  0.220E+00  0.212E+00
 29.490  0.217E+00  0.210E+00
 29.500  0.214E+00  0.207E+00
 29.510  0.211E+00  0.204E+00
 29.520  0.206E+00  0.200E+00
 29.530  0.201E+00  0.195E+00
 29.540  0.196E+00  0.190E+00
 29.550  0.190E+00  0.184E+00
 29.560  0.184E+00  0.178E+00
 29.570  0.178E+00  0.172E+00
 29.580  0.171E+00  0.166E+00
 29.590  0.165E+00  0.159E+00
 29.600  0.158E+00  0.153E+00
 29.610  0.152E+00  0.147E+00
 29.620  0.146E+00  0.141E+00
 29.630  0.140E+00  0.136E+00
 29.640  0.135E+00  0.131E+00
 29.650  0.130E+00  0.126E+00
 29.660  0.126E+00  0.122E+00
 29.670  0.122E+00  0.119E+00
 29.680  0.119E+00  0.115E+00
 29.690  0.116E+00  0.113E+00
 29.700  0.113E+00  0.110E+00
 29.710  0.111E+00  0.108E+00
 29.720  0.109E+00  0.106E+00
 29.730  0.107E+00  0.105E+00
 29.740  0.106E+00  0.103E+00
 29.750  0.104E+00  0.102E+00
 29.760  0.103E+00  0.101E+00
 29.770  0.102E+00  0.998E-01
 29.780  0.101E+00  0.988E-01
 29.790  0.100E+00  0.979E-01
 29.800  0.991E-01  0.970E-01
 29.810  0.982E-01  0.961E-01
 29.820  0.972E-01  0.952E-01
 29.830  0.962E-01  0.942E-01
 29.840  0.951E-01  0.932E-01
 29.850  0.940E-01  0.921E-01
 29.860  0.927E-01  0.909E-01
 29.870  0.913E-01  0.895E-01
 29.880  0.897E-01  0.880E-01
 29.890  0.879E-01  0.862E-01
 29.900  0.858E-01  0.842E-01
 29.910  0.834E-01  0.819E-01
 29.920  0.808E-01  0.793E-01
 29.930  0.779E-01  0.764E-01
 29.940  0.746E-01  0.733E-01
 29.950  0.711E-01  0.699E-01
 29.960  0.674E-01  0.662E-01
 29.970  0.635E-01  0.623E-01
 29.980  0.594E-01  0.583E-01
 29.990  0.551E-01  0.542E-01
 30.000  0.509E-01  0.500E-01
 30.010  0.466E-01  0.458E-01
 30.020  0.425E-01  0.417E-01
 30.030  0.384E-01  0.377E-01
 30.040  0.345E-01  0.339E-01
 30.050  0.307E-01  0.302E-01
 30.060  0.272E-01  0.268E-01
 30.070  0.240E-01  0.236E-01
 30.080  0.210E-01  0.206E-01
 30.090  0.182E-01  0.179E-01
 30.100  0.158E-01  0.155E-01
 30.110  0.135E-01  0.133E-01
 30.120  0.116E-01  0.114E-01
 30.130  0.984E-02  0.969E-02
 30.140  0.832E-02  0.820E-02
 30.150  0.700E-02  0.690E-02
 30.160  0.586E-02  0.577E-02
 30.170  0.487E-02  0.480E-02
 30.180  0.404E-02  0.398E-02
 30.190  0.332E-02  0.328E-02
 30.200  0.272E-02  0.268E-02
 30.210  0.221E-02  0.218E-02
 30.220  0.179E-02  0.177E-02
 30.230  0.144E-02  0.142E-02
 30.240  0.115E-02  0.114E-02
 30.250  0.912E-03  0.901E-03
 30.260  0.718E-03  0.709E-03
 30.270  0.561E-03  0.554E-03
 30.280  0.435E-03  0.430E-03
 30.290  0.335E-03  0.331E-03
 30.300  0.255E-03  0.252E-03
 30.310  0.193E-03  0.191E-03
 30.320  0.145E-03  0.143E-03
 30.330  0.108E-03  0.106E-03
 30.340  0.792E-04  0.782E-04
 30.350  0.577E-04  0.571E-04
 30.360  0.417E-04  0.412E-04
 30.370  0.298E-04  0.295E-04
 30.380  0.211E-04  0.209E-04
 30.390  0.148E-04  0.146E-04
 30.400  0.103E-04  0.102E-04
 30.410  0.707E-05  0.699E-05
 30.420  0.481E-05  0.475E-05
 30.430  0.324E-05  0.320E-05
 30.440  0.216E-05  0.213E-05
 30.450  0.142E-05  0.141E-05
 30.460  0.929E-06  0.918E-06
 30.470  0.600E-06  0.593E-06
 30.480  0.383E-06  0.379E-06
