# E (eV)   ldos(E)   pdos(E)   
 -7.003  0.268E-06  0.268E-06
 -6.993  0.428E-06  0.428E-06
 -6.983  0.677E-06  0.677E-06
 -6.973  0.106E-05  0.106E-05
 -6.963  0.164E-05  0.164E-05
 -6.953  0.252E-05  0.252E-05
 -6.943  0.382E-05  0.382E-05
 -6.933  0.574E-05  0.574E-05
 -6.923  0.855E-05  0.855E-05
 -6.913  0.126E-04  0.126E-04
 -6.903  0.184E-04  0.184E-04
 -6.893  0.266E-04  0.266E-04
 -6.883  0.380E-04  0.380E-04
 -6.873  0.538E-04  0.538E-04
 -6.863  0.755E-04  0.755E-04
 -6.853  0.105E-03  0.105E-03
 -6.843  0.144E-03  0.144E-03
 -6.833  0.197E-03  0.197E-03
 -6.823  0.265E-03  0.265E-03
 -6.813  0.355E-03  0.355E-03
 -6.803  0.470E-03  0.470E-03
 -6.793  0.617E-03  0.617E-03
 -6.783  0.802E-03  0.802E-03
 -6.773  0.103E-02  0.103E-02
 -6.763  0.132E-02  0.132E-02
 -6.753  0.167E-02  0.167E-02
 -6.743  0.209E-02  0.209E-02
 -6.733  0.260E-02  0.260E-02
 -6.723  0.320E-02  0.320E-02
 -6.713  0.391E-02  0.391E-02
 -6.703  0.474E-02  0.474E-02
 -6.693  0.569E-02  0.569E-02
 -6.683  0.677E-02  0.677E-02
 -6.673  0.800E-02  0.800E-02
 -6.663  0.937E-02  0.937E-02
 -6.653  0.109E-01  0.109E-01
 -6.643  0.126E-01  0.126E-01
 -6.633  0.144E-01  0.144E-01
 -6.623  0.164E-01  0.164E-01
 -6.613  0.185E-01  0.185E-01
 -6.603  0.207E-01  0.207E-01
 -6.593  0.230E-01  0.230E-01
 -6.583  0.255E-01  0.255E-01
 -6.573  0.280E-01  0.280E-01
 -6.563  0.306E-01  0.306E-01
 -6.553  0.332E-01  0.332E-01
 -6.543  0.358E-01  0.358E-01
 -6.533  0.385E-01  0.385E-01
 -6.523  0.411E-01  0.411E-01
 -6.513  0.437E-01  0.437E-01
 -6.503  0.463E-01  0.463E-01
 -6.493  0.488E-01  0.488E-01
 -6.483  0.512E-01  0.512E-01
 -6.473  0.536E-01  0.536E-01
 -6.463  0.558E-01  0.558E-01
 -6.453  0.580E-01  0.580E-01
 -6.443  0.601E-01  0.601E-01
 -6.433  0.620E-01  0.620E-01
 -6.423  0.639E-01  0.639E-01
 -6.413  0.657E-01  0.657E-01
 -6.403  0.674E-01  0.674E-01
 -6.393  0.689E-01  0.689E-01
 -6.383  0.704E-01  0.704E-01
 -6.373  0.718E-01  0.718E-01
 -6.363  0.732E-01  0.732E-01
 -6.353  0.745E-01  0.745E-01
 -6.343  0.757E-01  0.757E-01
 -6.333  0.768E-01  0.768E-01
 -6.323  0.779E-01  0.779E-01
 -6.313  0.789E-01  0.789E-01
 -6.303  0.799E-01  0.799E-01
 -6.293  0.808E-01  0.808E-01
 -6.283  0.817E-01  0.817E-01
 -6.273  0.826E-01  0.826E-01
 -6.263  0.834E-01  0.834E-01
 -6.253  0.842E-01  0.842E-01
 -6.243  0.850E-01  0.850E-01
 -6.233  0.857E-01  0.857E-01
 -6.223  0.864E-01  0.864E-01
 -6.213  0.871E-01  0.871E-01
 -6.203  0.877E-01  0.877E-01
 -6.193  0.884E-01  0.884E-01
 -6.183  0.890E-01  0.890E-01
 -6.173  0.896E-01  0.896E-01
 -6.163  0.901E-01  0.901E-01
 -6.153  0.907E-01  0.907E-01
 -6.143  0.913E-01  0.913E-01
 -6.133  0.918E-01  0.918E-01
 -6.123  0.923E-01  0.923E-01
 -6.113  0.929E-01  0.929E-01
 -6.103  0.934E-01  0.934E-01
 -6.093  0.939E-01  0.939E-01
 -6.083  0.944E-01  0.944E-01
 -6.073  0.948E-01  0.948E-01
 -6.063  0.953E-01  0.953E-01
 -6.053  0.957E-01  0.957E-01
 -6.043  0.961E-01  0.961E-01
 -6.033  0.965E-01  0.965E-01
 -6.023  0.969E-01  0.969E-01
 -6.013  0.973E-01  0.973E-01
 -6.003  0.977E-01  0.977E-01
 -5.993  0.980E-01  0.980E-01
 -5.983  0.984E-01  0.984E-01
 -5.973  0.988E-01  0.988E-01
 -5.963  0.991E-01  0.991E-01
 -5.953  0.995E-01  0.995E-01
 -5.943  0.999E-01  0.999E-01
 -5.933  0.100E+00  0.100E+00
 -5.923  0.101E+00  0.101E+00
 -5.913  0.101E+00  0.101E+00
 -5.903  0.101E+00  0.101E+00
 -5.893  0.102E+00  0.102E+00
 -5.883  0.102E+00  0.102E+00
 -5.873  0.103E+00  0.103E+00
 -5.863  0.103E+00  0.103E+00
 -5.853  0.103E+00  0.103E+00
 -5.843  0.103E+00  0.103E+00
 -5.833  0.104E+00  0.104E+00
 -5.823  0.104E+00  0.104E+00
 -5.813  0.104E+00  0.104E+00
 -5.803  0.104E+00  0.104E+00
 -5.793  0.105E+00  0.105E+00
 -5.783  0.105E+00  0.105E+00
 -5.773  0.105E+00  0.105E+00
 -5.763  0.106E+00  0.106E+00
 -5.753  0.106E+00  0.106E+00
 -5.743  0.106E+00  0.106E+00
 -5.733  0.107E+00  0.107E+00
 -5.723  0.107E+00  0.107E+00
 -5.713  0.107E+00  0.107E+00
 -5.703  0.108E+00  0.108E+00
 -5.693  0.108E+00  0.108E+00
 -5.683  0.108E+00  0.108E+00
 -5.673  0.109E+00  0.109E+00
 -5.663  0.109E+00  0.109E+00
 -5.653  0.109E+00  0.109E+00
 -5.643  0.110E+00  0.110E+00
 -5.633  0.110E+00  0.110E+00
 -5.623  0.110E+00  0.110E+00
 -5.613  0.110E+00  0.110E+00
 -5.603  0.110E+00  0.110E+00
 -5.593  0.111E+00  0.111E+00
 -5.583  0.111E+00  0.111E+00
 -5.573  0.111E+00  0.111E+00
 -5.563  0.111E+00  0.111E+00
 -5.553  0.112E+00  0.112E+00
 -5.543  0.112E+00  0.112E+00
 -5.533  0.112E+00  0.112E+00
 -5.523  0.113E+00  0.113E+00
 -5.513  0.113E+00  0.113E+00
 -5.503  0.114E+00  0.114E+00
 -5.493  0.114E+00  0.114E+00
 -5.483  0.115E+00  0.115E+00
 -5.473  0.115E+00  0.115E+00
 -5.463  0.115E+00  0.115E+00
 -5.453  0.116E+00  0.116E+00
 -5.443  0.116E+00  0.116E+00
 -5.433  0.116E+00  0.116E+00
 -5.423  0.117E+00  0.117E+00
 -5.413  0.117E+00  0.117E+00
 -5.403  0.117E+00  0.117E+00
 -5.393  0.117E+00  0.117E+00
 -5.383  0.118E+00  0.118E+00
 -5.373  0.118E+00  0.118E+00
 -5.363  0.118E+00  0.118E+00
 -5.353  0.119E+00  0.119E+00
 -5.343  0.119E+00  0.119E+00
 -5.333  0.120E+00  0.120E+00
 -5.323  0.120E+00  0.120E+00
 -5.313  0.121E+00  0.121E+00
 -5.303  0.122E+00  0.122E+00
 -5.293  0.122E+00  0.122E+00
 -5.283  0.123E+00  0.123E+00
 -5.273  0.124E+00  0.124E+00
 -5.263  0.124E+00  0.124E+00
 -5.253  0.125E+00  0.125E+00
 -5.243  0.126E+00  0.126E+00
 -5.233  0.126E+00  0.126E+00
 -5.223  0.127E+00  0.127E+00
 -5.213  0.128E+00  0.128E+00
 -5.203  0.128E+00  0.128E+00
 -5.193  0.129E+00  0.129E+00
 -5.183  0.130E+00  0.130E+00
 -5.173  0.131E+00  0.131E+00
 -5.163  0.132E+00  0.132E+00
 -5.153  0.133E+00  0.133E+00
 -5.143  0.134E+00  0.134E+00
 -5.133  0.135E+00  0.135E+00
 -5.123  0.137E+00  0.137E+00
 -5.113  0.138E+00  0.138E+00
 -5.103  0.139E+00  0.139E+00
 -5.093  0.141E+00  0.141E+00
 -5.083  0.142E+00  0.142E+00
 -5.073  0.144E+00  0.144E+00
 -5.063  0.145E+00  0.145E+00
 -5.053  0.147E+00  0.147E+00
 -5.043  0.148E+00  0.148E+00
 -5.033  0.149E+00  0.149E+00
 -5.023  0.151E+00  0.151E+00
 -5.013  0.152E+00  0.152E+00
 -5.003  0.153E+00  0.153E+00
 -4.993  0.153E+00  0.153E+00
 -4.983  0.154E+00  0.154E+00
 -4.973  0.154E+00  0.154E+00
 -4.963  0.155E+00  0.155E+00
 -4.953  0.155E+00  0.155E+00
 -4.943  0.155E+00  0.155E+00
 -4.933  0.154E+00  0.154E+00
 -4.923  0.154E+00  0.154E+00
 -4.913  0.153E+00  0.153E+00
 -4.903  0.153E+00  0.153E+00
 -4.893  0.151E+00  0.151E+00
 -4.883  0.150E+00  0.150E+00
 -4.873  0.149E+00  0.149E+00
 -4.863  0.147E+00  0.147E+00
 -4.853  0.146E+00  0.146E+00
 -4.843  0.144E+00  0.144E+00
 -4.833  0.142E+00  0.142E+00
 -4.823  0.140E+00  0.140E+00
 -4.813  0.137E+00  0.137E+00
 -4.803  0.135E+00  0.135E+00
 -4.793  0.133E+00  0.133E+00
 -4.783  0.130E+00  0.130E+00
 -4.773  0.128E+00  0.128E+00
 -4.763  0.125E+00  0.125E+00
 -4.753  0.123E+00  0.123E+00
 -4.743  0.121E+00  0.121E+00
 -4.733  0.118E+00  0.118E+00
 -4.723  0.116E+00  0.116E+00
 -4.713  0.113E+00  0.113E+00
 -4.703  0.111E+00  0.111E+00
 -4.693  0.108E+00  0.108E+00
 -4.683  0.106E+00  0.106E+00
 -4.673  0.103E+00  0.103E+00
 -4.663  0.101E+00  0.101E+00
 -4.653  0.981E-01  0.981E-01
 -4.643  0.956E-01  0.956E-01
 -4.633  0.931E-01  0.931E-01
 -4.623  0.905E-01  0.905E-01
 -4.613  0.880E-01  0.880E-01
 -4.603  0.855E-01  0.855E-01
 -4.593  0.830E-01  0.830E-01
 -4.583  0.804E-01  0.804E-01
 -4.573  0.779E-01  0.779E-01
 -4.563  0.753E-01  0.753E-01
 -4.553  0.728E-01  0.728E-01
 -4.543  0.702E-01  0.702E-01
 -4.533  0.676E-01  0.676E-01
 -4.523  0.650E-01  0.650E-01
 -4.513  0.624E-01  0.624E-01
 -4.503  0.598E-01  0.598E-01
 -4.493  0.572E-01  0.572E-01
 -4.483  0.546E-01  0.546E-01
 -4.473  0.519E-01  0.519E-01
 -4.463  0.493E-01  0.493E-01
 -4.453  0.467E-01  0.467E-01
 -4.443  0.440E-01  0.440E-01
 -4.433  0.414E-01  0.414E-01
 -4.423  0.388E-01  0.388E-01
 -4.413  0.363E-01  0.363E-01
 -4.403  0.337E-01  0.337E-01
 -4.393  0.312E-01  0.312E-01
 -4.383  0.288E-01  0.288E-01
 -4.373  0.265E-01  0.265E-01
 -4.363  0.242E-01  0.242E-01
 -4.353  0.220E-01  0.220E-01
 -4.343  0.199E-01  0.199E-01
 -4.333  0.178E-01  0.178E-01
 -4.323  0.159E-01  0.159E-01
 -4.313  0.142E-01  0.142E-01
 -4.303  0.125E-01  0.125E-01
 -4.293  0.110E-01  0.110E-01
 -4.283  0.956E-02  0.956E-02
 -4.273  0.827E-02  0.827E-02
 -4.263  0.711E-02  0.711E-02
 -4.253  0.607E-02  0.607E-02
 -4.243  0.514E-02  0.514E-02
 -4.233  0.432E-02  0.432E-02
 -4.223  0.360E-02  0.360E-02
 -4.213  0.298E-02  0.298E-02
 -4.203  0.245E-02  0.245E-02
 -4.193  0.199E-02  0.199E-02
 -4.183  0.161E-02  0.161E-02
 -4.173  0.129E-02  0.129E-02
 -4.163  0.102E-02  0.102E-02
 -4.153  0.807E-03  0.807E-03
 -4.143  0.630E-03  0.630E-03
 -4.133  0.488E-03  0.488E-03
 -4.123  0.374E-03  0.374E-03
 -4.113  0.285E-03  0.285E-03
 -4.103  0.214E-03  0.214E-03
 -4.093  0.160E-03  0.160E-03
 -4.083  0.119E-03  0.119E-03
 -4.073  0.869E-04  0.869E-04
 -4.063  0.631E-04  0.631E-04
 -4.053  0.454E-04  0.454E-04
 -4.043  0.324E-04  0.324E-04
 -4.033  0.229E-04  0.229E-04
 -4.023  0.160E-04  0.160E-04
 -4.013  0.111E-04  0.111E-04
 -4.003  0.761E-05  0.761E-05
 -3.993  0.517E-05  0.517E-05
 -3.983  0.348E-05  0.348E-05
 -3.973  0.232E-05  0.232E-05
 -3.963  0.153E-05  0.153E-05
 -3.953  0.100E-05  0.100E-05
 -3.943  0.649E-06  0.649E-06
 -3.933  0.416E-06  0.416E-06
 -3.923  0.264E-06  0.264E-06
 -3.913  0.166E-06  0.166E-06
 -3.903  0.103E-06  0.103E-06
 -3.893  0.637E-07  0.637E-07
 -3.883  0.388E-07  0.388E-07
 -3.873  0.235E-07  0.235E-07
 -3.863  0.140E-07  0.140E-07
 -3.853  0.830E-08  0.830E-08
 -3.843  0.487E-08  0.487E-08
 -3.833  0.282E-08  0.282E-08
 -3.823  0.162E-08  0.162E-08
 -3.813  0.921E-09  0.921E-09
 -3.803  0.519E-09  0.519E-09
 -3.793  0.289E-09  0.289E-09
 -3.783  0.159E-09  0.159E-09
 -3.773  0.869E-10  0.869E-10
 -3.763  0.469E-10  0.469E-10
 -3.753  0.251E-10  0.251E-10
 -3.743  0.133E-10  0.133E-10
 -3.733  0.695E-11  0.695E-11
 -3.723  0.360E-11  0.360E-11
 -3.713  0.184E-11  0.184E-11
 -3.703  0.929E-12  0.929E-12
 -3.693  0.465E-12  0.465E-12
 -3.683  0.229E-12  0.229E-12
 -3.673  0.110E-12  0.110E-12
 -3.663  0.497E-13  0.497E-13
 -3.653  0.207E-13  0.207E-13
 -3.643  0.888E-14  0.888E-14
 -3.633  0.347E-14  0.347E-14
 -3.623  0.403E-15  0.403E-15
 -3.613  0.722E-25  0.722E-25
 -3.603  0.211E-25  0.211E-25
 -3.593  0.000E+00  0.000E+00
 -3.583  0.000E+00  0.000E+00
 -3.573  0.000E+00  0.000E+00
 -3.563  0.000E+00  0.000E+00
 -3.553  0.000E+00  0.000E+00
 -3.543  0.000E+00  0.000E+00
 -3.533  0.000E+00  0.000E+00
 -3.523  0.000E+00  0.000E+00
 -3.513  0.000E+00  0.000E+00
 -3.503  0.000E+00  0.000E+00
 -3.493  0.000E+00  0.000E+00
 -3.483  0.000E+00  0.000E+00
 -3.473  0.000E+00  0.000E+00
 -3.463  0.000E+00  0.000E+00
 -3.453  0.000E+00  0.000E+00
 -3.443  0.000E+00  0.000E+00
 -3.433  0.000E+00  0.000E+00
 -3.423  0.000E+00  0.000E+00
 -3.413  0.000E+00  0.000E+00
 -3.403  0.000E+00  0.000E+00
 -3.393  0.000E+00  0.000E+00
 -3.383  0.000E+00  0.000E+00
 -3.373  0.000E+00  0.000E+00
 -3.363  0.000E+00  0.000E+00
 -3.353  0.000E+00  0.000E+00
 -3.343  0.000E+00  0.000E+00
 -3.333  0.000E+00  0.000E+00
 -3.323  0.000E+00  0.000E+00
 -3.313  0.000E+00  0.000E+00
 -3.303  0.000E+00  0.000E+00
 -3.293  0.000E+00  0.000E+00
 -3.283  0.000E+00  0.000E+00
 -3.273  0.000E+00  0.000E+00
 -3.263  0.000E+00  0.000E+00
 -3.253  0.000E+00  0.000E+00
 -3.243  0.000E+00  0.000E+00
 -3.233  0.000E+00  0.000E+00
 -3.223  0.000E+00  0.000E+00
 -3.213  0.000E+00  0.000E+00
 -3.203  0.000E+00  0.000E+00
 -3.193  0.000E+00  0.000E+00
 -3.183  0.000E+00  0.000E+00
 -3.173  0.000E+00  0.000E+00
 -3.163  0.000E+00  0.000E+00
 -3.153  0.000E+00  0.000E+00
 -3.143  0.000E+00  0.000E+00
 -3.133  0.000E+00  0.000E+00
 -3.123  0.000E+00  0.000E+00
 -3.113  0.000E+00  0.000E+00
 -3.103  0.000E+00  0.000E+00
 -3.093  0.000E+00  0.000E+00
 -3.083  0.000E+00  0.000E+00
 -3.073  0.000E+00  0.000E+00
 -3.063  0.000E+00  0.000E+00
 -3.053  0.000E+00  0.000E+00
 -3.043  0.000E+00  0.000E+00
 -3.033  0.000E+00  0.000E+00
 -3.023  0.000E+00  0.000E+00
 -3.013  0.000E+00  0.000E+00
 -3.003  0.000E+00  0.000E+00
 -2.993  0.000E+00  0.000E+00
 -2.983  0.000E+00  0.000E+00
 -2.973  0.000E+00  0.000E+00
 -2.963  0.000E+00  0.000E+00
 -2.953  0.000E+00  0.000E+00
 -2.943  0.000E+00  0.000E+00
 -2.933  0.000E+00  0.000E+00
 -2.923  0.000E+00  0.000E+00
 -2.913  0.000E+00  0.000E+00
 -2.903  0.000E+00  0.000E+00
 -2.893  0.000E+00  0.000E+00
 -2.883  0.000E+00  0.000E+00
 -2.873  0.000E+00  0.000E+00
 -2.863  0.000E+00  0.000E+00
 -2.853  0.000E+00  0.000E+00
 -2.843  0.000E+00  0.000E+00
 -2.833  0.000E+00  0.000E+00
 -2.823  0.000E+00  0.000E+00
 -2.813  0.000E+00  0.000E+00
 -2.803  0.000E+00  0.000E+00
 -2.793  0.000E+00  0.000E+00
 -2.783  0.000E+00  0.000E+00
 -2.773  0.000E+00  0.000E+00
 -2.763  0.000E+00  0.000E+00
 -2.753  0.000E+00  0.000E+00
 -2.743  0.000E+00  0.000E+00
 -2.733  0.000E+00  0.000E+00
 -2.723  0.000E+00  0.000E+00
 -2.713  0.000E+00  0.000E+00
 -2.703  0.000E+00  0.000E+00
 -2.693  0.000E+00  0.000E+00
 -2.683  0.000E+00  0.000E+00
 -2.673  0.000E+00  0.000E+00
 -2.663  0.000E+00  0.000E+00
 -2.653  0.000E+00  0.000E+00
 -2.643  0.000E+00  0.000E+00
 -2.633  0.000E+00  0.000E+00
 -2.623  0.000E+00  0.000E+00
 -2.613  0.000E+00  0.000E+00
 -2.603  0.000E+00  0.000E+00
 -2.593  0.000E+00  0.000E+00
 -2.583  0.000E+00  0.000E+00
 -2.573  0.000E+00  0.000E+00
 -2.563  0.000E+00  0.000E+00
 -2.553  0.000E+00  0.000E+00
 -2.543  0.000E+00  0.000E+00
 -2.533  0.000E+00  0.000E+00
 -2.523  0.000E+00  0.000E+00
 -2.513  0.000E+00  0.000E+00
 -2.503  0.000E+00  0.000E+00
 -2.493  0.000E+00  0.000E+00
 -2.483  0.000E+00  0.000E+00
 -2.473  0.000E+00  0.000E+00
 -2.463  0.000E+00  0.000E+00
 -2.453  0.000E+00  0.000E+00
 -2.443  0.000E+00  0.000E+00
 -2.433  0.000E+00  0.000E+00
 -2.423  0.000E+00  0.000E+00
 -2.413  0.000E+00  0.000E+00
 -2.403  0.000E+00  0.000E+00
 -2.393  0.000E+00  0.000E+00
 -2.383  0.000E+00  0.000E+00
 -2.373  0.000E+00  0.000E+00
 -2.363  0.000E+00  0.000E+00
 -2.353  0.000E+00  0.000E+00
 -2.343  0.000E+00  0.000E+00
 -2.333  0.000E+00  0.000E+00
 -2.323  0.000E+00  0.000E+00
 -2.313  0.000E+00  0.000E+00
 -2.303  0.000E+00  0.000E+00
 -2.293  0.000E+00  0.000E+00
 -2.283  0.000E+00  0.000E+00
 -2.273  0.000E+00  0.000E+00
 -2.263  0.000E+00  0.000E+00
 -2.253  0.000E+00  0.000E+00
 -2.243  0.000E+00  0.000E+00
 -2.233  0.000E+00  0.000E+00
 -2.223  0.000E+00  0.000E+00
 -2.213  0.000E+00  0.000E+00
 -2.203  0.000E+00  0.000E+00
 -2.193  0.000E+00  0.000E+00
 -2.183  0.000E+00  0.000E+00
 -2.173  0.000E+00  0.000E+00
 -2.163  0.000E+00  0.000E+00
 -2.153  0.000E+00  0.000E+00
 -2.143  0.000E+00  0.000E+00
 -2.133  0.000E+00  0.000E+00
 -2.123  0.000E+00  0.000E+00
 -2.113  0.000E+00  0.000E+00
 -2.103  0.000E+00  0.000E+00
 -2.093  0.000E+00  0.000E+00
 -2.083  0.000E+00  0.000E+00
 -2.073  0.000E+00  0.000E+00
 -2.063  0.000E+00  0.000E+00
 -2.053  0.000E+00  0.000E+00
 -2.043  0.000E+00  0.000E+00
 -2.033  0.000E+00  0.000E+00
 -2.023  0.000E+00  0.000E+00
 -2.013  0.000E+00  0.000E+00
 -2.003  0.000E+00  0.000E+00
 -1.993  0.000E+00  0.000E+00
 -1.983  0.000E+00  0.000E+00
 -1.973  0.000E+00  0.000E+00
 -1.963  0.000E+00  0.000E+00
 -1.953  0.000E+00  0.000E+00
 -1.943  0.000E+00  0.000E+00
 -1.933  0.000E+00  0.000E+00
 -1.923  0.000E+00  0.000E+00
 -1.913  0.000E+00  0.000E+00
 -1.903  0.000E+00  0.000E+00
 -1.893  0.000E+00  0.000E+00
 -1.883  0.000E+00  0.000E+00
 -1.873  0.000E+00  0.000E+00
 -1.863  0.000E+00  0.000E+00
 -1.853  0.000E+00  0.000E+00
 -1.843  0.000E+00  0.000E+00
 -1.833  0.000E+00  0.000E+00
 -1.823  0.000E+00  0.000E+00
 -1.813  0.000E+00  0.000E+00
 -1.803  0.000E+00  0.000E+00
 -1.793  0.000E+00  0.000E+00
 -1.783  0.000E+00  0.000E+00
 -1.773  0.000E+00  0.000E+00
 -1.763  0.000E+00  0.000E+00
 -1.753  0.000E+00  0.000E+00
 -1.743  0.000E+00  0.000E+00
 -1.733  0.000E+00  0.000E+00
 -1.723  0.000E+00  0.000E+00
 -1.713  0.000E+00  0.000E+00
 -1.703  0.000E+00  0.000E+00
 -1.693  0.000E+00  0.000E+00
 -1.683  0.000E+00  0.000E+00
 -1.673  0.000E+00  0.000E+00
 -1.663  0.000E+00  0.000E+00
 -1.653  0.000E+00  0.000E+00
 -1.643  0.000E+00  0.000E+00
 -1.633  0.000E+00  0.000E+00
 -1.623  0.000E+00  0.000E+00
 -1.613  0.000E+00  0.000E+00
 -1.603  0.000E+00  0.000E+00
 -1.593  0.000E+00  0.000E+00
 -1.583  0.000E+00  0.000E+00
 -1.573  0.000E+00  0.000E+00
 -1.563  0.000E+00  0.000E+00
 -1.553  0.000E+00  0.000E+00
 -1.543  0.000E+00  0.000E+00
 -1.533  0.000E+00  0.000E+00
 -1.523  0.000E+00  0.000E+00
 -1.513  0.000E+00  0.000E+00
 -1.503  0.000E+00  0.000E+00
 -1.493  0.000E+00  0.000E+00
 -1.483  0.000E+00  0.000E+00
 -1.473  0.000E+00  0.000E+00
 -1.463  0.000E+00  0.000E+00
 -1.453  0.000E+00  0.000E+00
 -1.443  0.000E+00  0.000E+00
 -1.433  0.000E+00  0.000E+00
 -1.423  0.000E+00  0.000E+00
 -1.413  0.000E+00  0.000E+00
 -1.403  0.000E+00  0.000E+00
 -1.393  0.000E+00  0.000E+00
 -1.383  0.000E+00  0.000E+00
 -1.373  0.000E+00  0.000E+00
 -1.363  0.000E+00  0.000E+00
 -1.353  0.000E+00  0.000E+00
 -1.343  0.000E+00  0.000E+00
 -1.333  0.666E-14  0.666E-14
 -1.323  0.139E-13  0.139E-13
 -1.313  0.505E-13  0.505E-13
 -1.303  0.104E-12  0.104E-12
 -1.293  0.214E-12  0.214E-12
 -1.283  0.471E-12  0.471E-12
 -1.273  0.984E-12  0.984E-12
 -1.263  0.198E-11  0.198E-11
 -1.253  0.392E-11  0.392E-11
 -1.243  0.766E-11  0.766E-11
 -1.233  0.148E-10  0.148E-10
 -1.223  0.284E-10  0.284E-10
 -1.213  0.540E-10  0.540E-10
 -1.203  0.101E-09  0.101E-09
 -1.193  0.188E-09  0.188E-09
 -1.183  0.346E-09  0.346E-09
 -1.173  0.629E-09  0.629E-09
 -1.163  0.113E-08  0.113E-08
 -1.153  0.202E-08  0.202E-08
 -1.143  0.357E-08  0.357E-08
 -1.133  0.623E-08  0.623E-08
 -1.123  0.108E-07  0.108E-07
 -1.113  0.184E-07  0.184E-07
 -1.103  0.312E-07  0.312E-07
 -1.093  0.524E-07  0.524E-07
 -1.083  0.869E-07  0.869E-07
 -1.073  0.143E-06  0.143E-06
 -1.063  0.232E-06  0.232E-06
 -1.053  0.374E-06  0.374E-06
 -1.043  0.597E-06  0.597E-06
 -1.033  0.943E-06  0.943E-06
 -1.023  0.147E-05  0.147E-05
 -1.013  0.228E-05  0.228E-05
 -1.003  0.349E-05  0.349E-05
 -0.993  0.530E-05  0.530E-05
 -0.983  0.796E-05  0.796E-05
 -0.973  0.118E-04  0.118E-04
 -0.963  0.174E-04  0.174E-04
 -0.953  0.254E-04  0.254E-04
 -0.943  0.367E-04  0.367E-04
 -0.933  0.525E-04  0.525E-04
 -0.923  0.743E-04  0.743E-04
 -0.913  0.104E-03  0.104E-03
 -0.903  0.145E-03  0.145E-03
 -0.893  0.199E-03  0.199E-03
 -0.883  0.272E-03  0.272E-03
 -0.873  0.367E-03  0.367E-03
 -0.863  0.490E-03  0.490E-03
 -0.853  0.650E-03  0.650E-03
 -0.843  0.854E-03  0.854E-03
 -0.833  0.111E-02  0.111E-02
 -0.823  0.143E-02  0.143E-02
 -0.813  0.183E-02  0.183E-02
 -0.803  0.232E-02  0.232E-02
 -0.793  0.292E-02  0.292E-02
 -0.783  0.363E-02  0.363E-02
 -0.773  0.449E-02  0.449E-02
 -0.763  0.550E-02  0.550E-02
 -0.753  0.668E-02  0.668E-02
 -0.743  0.805E-02  0.805E-02
 -0.733  0.963E-02  0.963E-02
 -0.723  0.114E-01  0.114E-01
 -0.713  0.135E-01  0.135E-01
 -0.703  0.158E-01  0.158E-01
 -0.693  0.183E-01  0.183E-01
 -0.683  0.212E-01  0.212E-01
 -0.673  0.243E-01  0.243E-01
 -0.663  0.277E-01  0.277E-01
 -0.653  0.314E-01  0.314E-01
 -0.643  0.354E-01  0.354E-01
 -0.633  0.397E-01  0.397E-01
 -0.623  0.443E-01  0.443E-01
 -0.613  0.492E-01  0.492E-01
 -0.603  0.544E-01  0.544E-01
 -0.593  0.600E-01  0.600E-01
 -0.583  0.659E-01  0.659E-01
 -0.573  0.721E-01  0.721E-01
 -0.563  0.787E-01  0.787E-01
 -0.553  0.857E-01  0.857E-01
 -0.543  0.931E-01  0.931E-01
 -0.533  0.101E+00  0.101E+00
 -0.523  0.109E+00  0.109E+00
 -0.513  0.118E+00  0.118E+00
 -0.503  0.127E+00  0.127E+00
 -0.493  0.137E+00  0.137E+00
 -0.483  0.147E+00  0.147E+00
 -0.473  0.158E+00  0.158E+00
 -0.463  0.169E+00  0.169E+00
 -0.453  0.181E+00  0.181E+00
 -0.443  0.194E+00  0.194E+00
 -0.433  0.207E+00  0.207E+00
 -0.423  0.221E+00  0.221E+00
 -0.413  0.236E+00  0.236E+00
 -0.403  0.251E+00  0.251E+00
 -0.393  0.267E+00  0.267E+00
 -0.383  0.285E+00  0.285E+00
 -0.373  0.303E+00  0.303E+00
 -0.363  0.322E+00  0.322E+00
 -0.353  0.342E+00  0.342E+00
 -0.343  0.363E+00  0.363E+00
 -0.333  0.385E+00  0.385E+00
 -0.323  0.408E+00  0.408E+00
 -0.313  0.432E+00  0.432E+00
 -0.303  0.457E+00  0.457E+00
 -0.293  0.483E+00  0.483E+00
 -0.283  0.510E+00  0.510E+00
 -0.273  0.538E+00  0.538E+00
 -0.263  0.567E+00  0.567E+00
 -0.253  0.595E+00  0.595E+00
 -0.243  0.624E+00  0.624E+00
 -0.233  0.653E+00  0.653E+00
 -0.223  0.681E+00  0.681E+00
 -0.213  0.709E+00  0.709E+00
 -0.203  0.735E+00  0.735E+00
 -0.193  0.759E+00  0.759E+00
 -0.183  0.782E+00  0.782E+00
 -0.173  0.802E+00  0.802E+00
 -0.163  0.819E+00  0.819E+00
 -0.153  0.833E+00  0.833E+00
 -0.143  0.844E+00  0.844E+00
 -0.133  0.850E+00  0.850E+00
 -0.123  0.854E+00  0.854E+00
 -0.113  0.853E+00  0.853E+00
 -0.103  0.848E+00  0.848E+00
 -0.093  0.840E+00  0.840E+00
 -0.083  0.828E+00  0.828E+00
 -0.073  0.813E+00  0.813E+00
 -0.063  0.794E+00  0.794E+00
 -0.053  0.773E+00  0.773E+00
 -0.043  0.749E+00  0.749E+00
 -0.033  0.724E+00  0.724E+00
 -0.023  0.697E+00  0.697E+00
 -0.013  0.669E+00  0.669E+00
 -0.003  0.640E+00  0.640E+00
  0.007  0.611E+00  0.611E+00
  0.017  0.582E+00  0.582E+00
  0.027  0.554E+00  0.554E+00
  0.037  0.526E+00  0.526E+00
  0.047  0.500E+00  0.500E+00
  0.057  0.475E+00  0.475E+00
  0.067  0.451E+00  0.451E+00
  0.077  0.429E+00  0.429E+00
  0.087  0.408E+00  0.408E+00
  0.097  0.388E+00  0.388E+00
  0.107  0.371E+00  0.371E+00
  0.117  0.354E+00  0.354E+00
  0.127  0.339E+00  0.339E+00
  0.137  0.325E+00  0.325E+00
  0.147  0.312E+00  0.312E+00
  0.157  0.300E+00  0.300E+00
  0.167  0.289E+00  0.289E+00
  0.177  0.279E+00  0.279E+00
  0.187  0.270E+00  0.270E+00
  0.197  0.261E+00  0.261E+00
  0.207  0.253E+00  0.253E+00
  0.217  0.245E+00  0.245E+00
  0.227  0.238E+00  0.238E+00
  0.237  0.231E+00  0.231E+00
  0.247  0.225E+00  0.225E+00
  0.257  0.219E+00  0.219E+00
  0.267  0.213E+00  0.213E+00
  0.277  0.208E+00  0.208E+00
  0.287  0.203E+00  0.203E+00
  0.297  0.198E+00  0.198E+00
  0.307  0.194E+00  0.194E+00
  0.317  0.190E+00  0.190E+00
  0.327  0.186E+00  0.186E+00
  0.337  0.183E+00  0.183E+00
  0.347  0.179E+00  0.179E+00
  0.357  0.176E+00  0.176E+00
  0.367  0.173E+00  0.173E+00
  0.377  0.170E+00  0.170E+00
  0.387  0.167E+00  0.167E+00
  0.397  0.164E+00  0.164E+00
  0.407  0.161E+00  0.161E+00
  0.417  0.158E+00  0.158E+00
  0.427  0.155E+00  0.155E+00
  0.437  0.152E+00  0.152E+00
  0.447  0.149E+00  0.149E+00
  0.457  0.146E+00  0.146E+00
  0.467  0.144E+00  0.144E+00
  0.477  0.141E+00  0.141E+00
  0.487  0.138E+00  0.138E+00
  0.497  0.135E+00  0.135E+00
  0.507  0.133E+00  0.133E+00
  0.517  0.131E+00  0.131E+00
  0.527  0.128E+00  0.128E+00
  0.537  0.126E+00  0.126E+00
  0.547  0.124E+00  0.124E+00
  0.557  0.122E+00  0.122E+00
  0.567  0.121E+00  0.121E+00
  0.577  0.119E+00  0.119E+00
  0.587  0.118E+00  0.118E+00
  0.597  0.116E+00  0.116E+00
  0.607  0.115E+00  0.115E+00
  0.617  0.114E+00  0.114E+00
  0.627  0.113E+00  0.113E+00
  0.637  0.112E+00  0.112E+00
  0.647  0.110E+00  0.110E+00
  0.657  0.109E+00  0.109E+00
  0.667  0.108E+00  0.108E+00
  0.677  0.107E+00  0.107E+00
  0.687  0.105E+00  0.105E+00
  0.697  0.104E+00  0.104E+00
  0.707  0.102E+00  0.102E+00
  0.717  0.101E+00  0.101E+00
  0.727  0.990E-01  0.990E-01
  0.737  0.972E-01  0.972E-01
  0.747  0.954E-01  0.954E-01
  0.757  0.935E-01  0.935E-01
  0.767  0.916E-01  0.916E-01
  0.777  0.899E-01  0.899E-01
  0.787  0.882E-01  0.882E-01
  0.797  0.866E-01  0.866E-01
  0.807  0.852E-01  0.852E-01
  0.817  0.839E-01  0.839E-01
  0.827  0.828E-01  0.828E-01
  0.837  0.819E-01  0.819E-01
  0.847  0.811E-01  0.811E-01
  0.857  0.805E-01  0.805E-01
  0.867  0.800E-01  0.800E-01
  0.877  0.795E-01  0.795E-01
  0.887  0.791E-01  0.791E-01
  0.897  0.787E-01  0.787E-01
  0.907  0.782E-01  0.782E-01
  0.917  0.777E-01  0.777E-01
  0.927  0.772E-01  0.772E-01
  0.937  0.766E-01  0.766E-01
  0.947  0.759E-01  0.759E-01
  0.957  0.751E-01  0.751E-01
  0.967  0.743E-01  0.743E-01
  0.977  0.735E-01  0.735E-01
  0.987  0.726E-01  0.726E-01
  0.997  0.717E-01  0.717E-01
  1.007  0.707E-01  0.707E-01
  1.017  0.698E-01  0.698E-01
  1.027  0.689E-01  0.689E-01
  1.037  0.680E-01  0.680E-01
  1.047  0.672E-01  0.672E-01
  1.057  0.663E-01  0.663E-01
  1.067  0.654E-01  0.654E-01
  1.077  0.645E-01  0.645E-01
  1.087  0.636E-01  0.636E-01
  1.097  0.627E-01  0.627E-01
  1.107  0.617E-01  0.617E-01
  1.117  0.608E-01  0.608E-01
  1.127  0.598E-01  0.598E-01
  1.137  0.588E-01  0.588E-01
  1.147  0.578E-01  0.578E-01
  1.157  0.568E-01  0.568E-01
  1.167  0.559E-01  0.559E-01
  1.177  0.551E-01  0.551E-01
  1.187  0.543E-01  0.543E-01
  1.197  0.537E-01  0.537E-01
  1.207  0.531E-01  0.531E-01
  1.217  0.527E-01  0.527E-01
  1.227  0.524E-01  0.524E-01
  1.237  0.522E-01  0.522E-01
  1.247  0.521E-01  0.521E-01
  1.257  0.521E-01  0.521E-01
  1.267  0.521E-01  0.521E-01
  1.277  0.523E-01  0.523E-01
  1.287  0.524E-01  0.524E-01
  1.297  0.526E-01  0.526E-01
  1.307  0.529E-01  0.529E-01
  1.317  0.531E-01  0.531E-01
  1.327  0.532E-01  0.532E-01
  1.337  0.534E-01  0.534E-01
  1.347  0.535E-01  0.535E-01
  1.357  0.537E-01  0.537E-01
  1.367  0.537E-01  0.537E-01
  1.377  0.538E-01  0.538E-01
  1.387  0.538E-01  0.538E-01
  1.397  0.539E-01  0.539E-01
  1.407  0.539E-01  0.539E-01
  1.417  0.539E-01  0.539E-01
  1.427  0.539E-01  0.539E-01
  1.437  0.539E-01  0.539E-01
  1.447  0.539E-01  0.539E-01
  1.457  0.540E-01  0.540E-01
  1.467  0.540E-01  0.540E-01
  1.477  0.541E-01  0.541E-01
  1.487  0.542E-01  0.542E-01
  1.497  0.544E-01  0.544E-01
  1.507  0.546E-01  0.546E-01
  1.517  0.548E-01  0.548E-01
  1.527  0.551E-01  0.551E-01
  1.537  0.554E-01  0.554E-01
  1.547  0.558E-01  0.558E-01
  1.557  0.562E-01  0.562E-01
  1.567  0.567E-01  0.567E-01
  1.577  0.573E-01  0.573E-01
  1.587  0.579E-01  0.579E-01
  1.597  0.585E-01  0.585E-01
  1.607  0.592E-01  0.592E-01
  1.617  0.600E-01  0.600E-01
  1.627  0.607E-01  0.607E-01
  1.637  0.615E-01  0.615E-01
  1.647  0.624E-01  0.624E-01
  1.657  0.632E-01  0.632E-01
  1.667  0.641E-01  0.641E-01
  1.677  0.649E-01  0.649E-01
  1.687  0.658E-01  0.658E-01
  1.697  0.666E-01  0.666E-01
  1.707  0.674E-01  0.674E-01
  1.717  0.682E-01  0.682E-01
  1.727  0.690E-01  0.690E-01
  1.737  0.697E-01  0.697E-01
  1.747  0.704E-01  0.704E-01
  1.757  0.710E-01  0.710E-01
  1.767  0.715E-01  0.715E-01
  1.777  0.720E-01  0.720E-01
  1.787  0.724E-01  0.724E-01
  1.797  0.727E-01  0.727E-01
  1.807  0.729E-01  0.729E-01
  1.817  0.731E-01  0.731E-01
  1.827  0.731E-01  0.731E-01
  1.837  0.731E-01  0.731E-01
  1.847  0.730E-01  0.730E-01
  1.857  0.728E-01  0.728E-01
  1.867  0.725E-01  0.725E-01
  1.877  0.722E-01  0.722E-01
  1.887  0.718E-01  0.718E-01
  1.897  0.715E-01  0.715E-01
  1.907  0.710E-01  0.710E-01
  1.917  0.706E-01  0.706E-01
  1.927  0.702E-01  0.702E-01
  1.937  0.698E-01  0.698E-01
  1.947  0.695E-01  0.695E-01
  1.957  0.692E-01  0.692E-01
  1.967  0.689E-01  0.689E-01
  1.977  0.687E-01  0.687E-01
  1.987  0.686E-01  0.686E-01
  1.997  0.686E-01  0.686E-01
  2.007  0.686E-01  0.686E-01
  2.017  0.687E-01  0.687E-01
  2.027  0.689E-01  0.689E-01
  2.037  0.691E-01  0.691E-01
  2.047  0.694E-01  0.694E-01
  2.057  0.697E-01  0.697E-01
  2.067  0.701E-01  0.701E-01
  2.077  0.705E-01  0.705E-01
  2.087  0.709E-01  0.709E-01
  2.097  0.713E-01  0.713E-01
  2.107  0.717E-01  0.717E-01
  2.117  0.720E-01  0.720E-01
  2.127  0.723E-01  0.723E-01
  2.137  0.725E-01  0.725E-01
  2.147  0.726E-01  0.726E-01
  2.157  0.727E-01  0.727E-01
  2.167  0.726E-01  0.726E-01
  2.177  0.725E-01  0.725E-01
  2.187  0.723E-01  0.723E-01
  2.197  0.721E-01  0.721E-01
  2.207  0.718E-01  0.718E-01
  2.217  0.715E-01  0.715E-01
  2.227  0.711E-01  0.711E-01
  2.237  0.708E-01  0.708E-01
  2.247  0.704E-01  0.704E-01
  2.257  0.701E-01  0.701E-01
  2.267  0.698E-01  0.698E-01
  2.277  0.696E-01  0.696E-01
  2.287  0.694E-01  0.694E-01
  2.297  0.693E-01  0.693E-01
  2.307  0.692E-01  0.692E-01
  2.317  0.692E-01  0.692E-01
  2.327  0.693E-01  0.693E-01
  2.337  0.693E-01  0.693E-01
  2.347  0.694E-01  0.694E-01
  2.357  0.695E-01  0.695E-01
  2.367  0.695E-01  0.695E-01
  2.377  0.695E-01  0.695E-01
  2.387  0.695E-01  0.695E-01
  2.397  0.694E-01  0.694E-01
  2.407  0.692E-01  0.692E-01
  2.417  0.689E-01  0.689E-01
  2.427  0.686E-01  0.686E-01
  2.437  0.681E-01  0.681E-01
  2.447  0.675E-01  0.675E-01
  2.457  0.669E-01  0.669E-01
  2.467  0.662E-01  0.662E-01
  2.477  0.654E-01  0.654E-01
  2.487  0.646E-01  0.646E-01
  2.497  0.638E-01  0.638E-01
  2.507  0.630E-01  0.630E-01
  2.517  0.622E-01  0.622E-01
  2.527  0.615E-01  0.615E-01
  2.537  0.608E-01  0.608E-01
  2.547  0.602E-01  0.602E-01
  2.557  0.597E-01  0.597E-01
  2.567  0.594E-01  0.594E-01
  2.577  0.592E-01  0.592E-01
  2.587  0.591E-01  0.591E-01
  2.597  0.592E-01  0.592E-01
  2.607  0.594E-01  0.594E-01
  2.617  0.597E-01  0.597E-01
  2.627  0.601E-01  0.601E-01
  2.637  0.605E-01  0.605E-01
  2.647  0.610E-01  0.610E-01
  2.657  0.616E-01  0.616E-01
  2.667  0.621E-01  0.621E-01
  2.677  0.626E-01  0.626E-01
  2.687  0.630E-01  0.630E-01
  2.697  0.634E-01  0.634E-01
  2.707  0.636E-01  0.636E-01
  2.717  0.638E-01  0.638E-01
  2.727  0.638E-01  0.638E-01
  2.737  0.637E-01  0.637E-01
  2.747  0.635E-01  0.635E-01
  2.757  0.631E-01  0.631E-01
  2.767  0.627E-01  0.627E-01
  2.777  0.621E-01  0.621E-01
  2.787  0.614E-01  0.614E-01
  2.797  0.606E-01  0.606E-01
  2.807  0.598E-01  0.598E-01
  2.817  0.589E-01  0.589E-01
  2.827  0.580E-01  0.580E-01
  2.837  0.570E-01  0.570E-01
  2.847  0.561E-01  0.561E-01
  2.857  0.551E-01  0.551E-01
  2.867  0.542E-01  0.542E-01
  2.877  0.533E-01  0.533E-01
  2.887  0.525E-01  0.525E-01
  2.897  0.517E-01  0.517E-01
  2.907  0.510E-01  0.510E-01
  2.917  0.503E-01  0.503E-01
  2.927  0.497E-01  0.497E-01
  2.937  0.492E-01  0.492E-01
  2.947  0.488E-01  0.488E-01
  2.957  0.484E-01  0.484E-01
  2.967  0.481E-01  0.481E-01
  2.977  0.478E-01  0.478E-01
  2.987  0.476E-01  0.476E-01
  2.997  0.473E-01  0.473E-01
  3.007  0.471E-01  0.471E-01
  3.017  0.470E-01  0.470E-01
  3.027  0.468E-01  0.468E-01
  3.037  0.466E-01  0.466E-01
  3.047  0.464E-01  0.464E-01
  3.057  0.462E-01  0.462E-01
  3.067  0.460E-01  0.460E-01
  3.077  0.458E-01  0.458E-01
  3.087  0.456E-01  0.456E-01
  3.097  0.454E-01  0.454E-01
  3.107  0.452E-01  0.452E-01
  3.117  0.451E-01  0.451E-01
  3.127  0.450E-01  0.450E-01
  3.137  0.449E-01  0.449E-01
  3.147  0.448E-01  0.448E-01
  3.157  0.448E-01  0.448E-01
  3.167  0.448E-01  0.448E-01
  3.177  0.448E-01  0.448E-01
  3.187  0.448E-01  0.448E-01
  3.197  0.448E-01  0.448E-01
  3.207  0.447E-01  0.447E-01
  3.217  0.446E-01  0.446E-01
  3.227  0.445E-01  0.445E-01
  3.237  0.443E-01  0.443E-01
  3.247  0.441E-01  0.441E-01
  3.257  0.438E-01  0.438E-01
  3.267  0.434E-01  0.434E-01
  3.277  0.429E-01  0.429E-01
  3.287  0.423E-01  0.423E-01
  3.297  0.417E-01  0.417E-01
  3.307  0.410E-01  0.410E-01
  3.317  0.403E-01  0.403E-01
  3.327  0.395E-01  0.395E-01
  3.337  0.386E-01  0.386E-01
  3.347  0.378E-01  0.378E-01
  3.357  0.369E-01  0.369E-01
  3.367  0.360E-01  0.360E-01
  3.377  0.352E-01  0.352E-01
  3.387  0.343E-01  0.343E-01
  3.397  0.335E-01  0.335E-01
  3.407  0.328E-01  0.328E-01
  3.417  0.321E-01  0.321E-01
  3.427  0.315E-01  0.315E-01
  3.437  0.309E-01  0.309E-01
  3.447  0.304E-01  0.304E-01
  3.457  0.299E-01  0.299E-01
  3.467  0.296E-01  0.296E-01
  3.477  0.292E-01  0.292E-01
  3.487  0.290E-01  0.290E-01
  3.497  0.288E-01  0.288E-01
  3.507  0.286E-01  0.286E-01
  3.517  0.285E-01  0.285E-01
  3.527  0.284E-01  0.284E-01
  3.537  0.284E-01  0.284E-01
  3.547  0.284E-01  0.284E-01
  3.557  0.284E-01  0.284E-01
  3.567  0.284E-01  0.284E-01
  3.577  0.284E-01  0.284E-01
  3.587  0.284E-01  0.284E-01
  3.597  0.283E-01  0.283E-01
  3.607  0.283E-01  0.283E-01
  3.617  0.282E-01  0.282E-01
  3.627  0.280E-01  0.280E-01
  3.637  0.279E-01  0.279E-01
  3.647  0.276E-01  0.276E-01
  3.657  0.274E-01  0.274E-01
  3.667  0.270E-01  0.270E-01
  3.677  0.267E-01  0.267E-01
  3.687  0.262E-01  0.262E-01
  3.697  0.258E-01  0.258E-01
  3.707  0.253E-01  0.253E-01
  3.717  0.248E-01  0.248E-01
  3.727  0.243E-01  0.243E-01
  3.737  0.237E-01  0.237E-01
  3.747  0.232E-01  0.232E-01
  3.757  0.226E-01  0.226E-01
  3.767  0.221E-01  0.221E-01
  3.777  0.216E-01  0.216E-01
  3.787  0.211E-01  0.211E-01
  3.797  0.206E-01  0.206E-01
  3.807  0.201E-01  0.201E-01
  3.817  0.197E-01  0.197E-01
  3.827  0.192E-01  0.192E-01
  3.837  0.188E-01  0.188E-01
  3.847  0.184E-01  0.184E-01
  3.857  0.179E-01  0.179E-01
  3.867  0.175E-01  0.175E-01
  3.877  0.172E-01  0.172E-01
  3.887  0.168E-01  0.168E-01
  3.897  0.164E-01  0.164E-01
  3.907  0.160E-01  0.160E-01
  3.917  0.157E-01  0.157E-01
  3.927  0.153E-01  0.153E-01
  3.937  0.150E-01  0.150E-01
  3.947  0.147E-01  0.147E-01
  3.957  0.143E-01  0.143E-01
  3.967  0.140E-01  0.140E-01
  3.977  0.137E-01  0.137E-01
  3.987  0.134E-01  0.134E-01
  3.997  0.131E-01  0.131E-01
  4.007  0.128E-01  0.128E-01
  4.017  0.125E-01  0.125E-01
  4.027  0.122E-01  0.122E-01
  4.037  0.120E-01  0.120E-01
  4.047  0.117E-01  0.117E-01
  4.057  0.115E-01  0.115E-01
  4.067  0.112E-01  0.112E-01
  4.077  0.110E-01  0.110E-01
  4.087  0.108E-01  0.108E-01
  4.097  0.106E-01  0.106E-01
  4.107  0.104E-01  0.104E-01
  4.117  0.102E-01  0.102E-01
  4.127  0.996E-02  0.996E-02
  4.137  0.976E-02  0.976E-02
  4.147  0.956E-02  0.956E-02
  4.157  0.937E-02  0.937E-02
  4.167  0.917E-02  0.917E-02
  4.177  0.897E-02  0.897E-02
  4.187  0.876E-02  0.876E-02
  4.197  0.856E-02  0.856E-02
  4.207  0.834E-02  0.834E-02
  4.217  0.812E-02  0.812E-02
  4.227  0.790E-02  0.790E-02
  4.237  0.767E-02  0.767E-02
  4.247  0.743E-02  0.743E-02
  4.257  0.719E-02  0.719E-02
  4.267  0.695E-02  0.695E-02
  4.277  0.670E-02  0.670E-02
  4.287  0.645E-02  0.645E-02
  4.297  0.620E-02  0.620E-02
  4.307  0.595E-02  0.595E-02
  4.317  0.570E-02  0.570E-02
  4.327  0.545E-02  0.545E-02
  4.337  0.521E-02  0.521E-02
  4.347  0.497E-02  0.497E-02
  4.357  0.473E-02  0.473E-02
  4.367  0.451E-02  0.451E-02
  4.377  0.429E-02  0.429E-02
  4.387  0.408E-02  0.408E-02
  4.397  0.387E-02  0.387E-02
  4.407  0.368E-02  0.368E-02
  4.417  0.350E-02  0.350E-02
  4.427  0.332E-02  0.332E-02
  4.437  0.316E-02  0.316E-02
  4.447  0.300E-02  0.300E-02
  4.457  0.286E-02  0.286E-02
  4.467  0.272E-02  0.272E-02
  4.477  0.260E-02  0.260E-02
  4.487  0.248E-02  0.248E-02
  4.497  0.236E-02  0.236E-02
  4.507  0.225E-02  0.225E-02
  4.517  0.215E-02  0.215E-02
  4.527  0.205E-02  0.205E-02
  4.537  0.196E-02  0.196E-02
  4.547  0.186E-02  0.186E-02
  4.557  0.177E-02  0.177E-02
  4.567  0.168E-02  0.168E-02
  4.577  0.159E-02  0.159E-02
  4.587  0.150E-02  0.150E-02
  4.597  0.141E-02  0.141E-02
  4.607  0.132E-02  0.132E-02
  4.617  0.123E-02  0.123E-02
  4.627  0.114E-02  0.114E-02
  4.637  0.105E-02  0.105E-02
  4.647  0.962E-03  0.962E-03
  4.657  0.877E-03  0.877E-03
  4.667  0.795E-03  0.795E-03
  4.677  0.716E-03  0.716E-03
  4.687  0.640E-03  0.640E-03
  4.697  0.568E-03  0.568E-03
  4.707  0.501E-03  0.501E-03
  4.717  0.439E-03  0.439E-03
  4.727  0.382E-03  0.382E-03
  4.737  0.329E-03  0.329E-03
  4.747  0.282E-03  0.282E-03
  4.757  0.239E-03  0.239E-03
  4.767  0.202E-03  0.202E-03
  4.777  0.168E-03  0.168E-03
  4.787  0.140E-03  0.140E-03
  4.797  0.115E-03  0.115E-03
  4.807  0.936E-04  0.936E-04
  4.817  0.756E-04  0.756E-04
  4.827  0.606E-04  0.606E-04
  4.837  0.482E-04  0.482E-04
  4.847  0.379E-04  0.379E-04
  4.857  0.296E-04  0.296E-04
  4.867  0.229E-04  0.229E-04
  4.877  0.176E-04  0.176E-04
  4.887  0.134E-04  0.134E-04
  4.897  0.101E-04  0.101E-04
  4.907  0.751E-05  0.751E-05
  4.917  0.555E-05  0.555E-05
  4.927  0.407E-05  0.407E-05
  4.937  0.295E-05  0.295E-05
  4.947  0.212E-05  0.212E-05
  4.957  0.151E-05  0.151E-05
  4.967  0.107E-05  0.107E-05
  4.977  0.745E-06  0.745E-06
  4.987  0.516E-06  0.516E-06
  4.997  0.353E-06  0.353E-06
  5.007  0.240E-06  0.240E-06
  5.017  0.161E-06  0.161E-06
  5.027  0.107E-06  0.107E-06
  5.037  0.707E-07  0.707E-07
  5.047  0.461E-07  0.461E-07
  5.057  0.298E-07  0.298E-07
  5.067  0.191E-07  0.191E-07
  5.077  0.121E-07  0.121E-07
  5.087  0.756E-08  0.756E-08
  5.097  0.469E-08  0.469E-08
  5.107  0.288E-08  0.288E-08
  5.117  0.175E-08  0.175E-08
  5.127  0.106E-08  0.106E-08
  5.137  0.629E-09  0.629E-09
  5.147  0.371E-09  0.371E-09
  5.157  0.216E-09  0.216E-09
  5.167  0.125E-09  0.125E-09
  5.177  0.715E-10  0.715E-10
  5.187  0.405E-10  0.405E-10
  5.197  0.227E-10  0.227E-10
  5.207  0.126E-10  0.126E-10
  5.217  0.689E-11  0.689E-11
  5.227  0.374E-11  0.374E-11
  5.237  0.201E-11  0.201E-11
  5.247  0.107E-11  0.107E-11
  5.257  0.562E-12  0.562E-12
  5.267  0.292E-12  0.292E-12
  5.277  0.150E-12  0.150E-12
  5.287  0.767E-13  0.767E-13
  5.297  0.382E-13  0.382E-13
  5.307  0.191E-13  0.191E-13
  5.317  0.913E-14  0.913E-14
  5.327  0.444E-14  0.444E-14
  5.337  0.190E-14  0.190E-14
  5.347  0.915E-15  0.915E-15
  5.357  0.436E-15  0.436E-15
  5.367  0.535E-22  0.535E-22
  5.377  0.272E-22  0.272E-22
  5.387  0.137E-22  0.137E-22
  5.397  0.646E-23  0.646E-23
  5.407  0.319E-23  0.319E-23
  5.417  0.146E-23  0.146E-23
  5.427  0.708E-24  0.708E-24
  5.437  0.340E-24  0.340E-24
  5.447  0.105E-24  0.105E-24
  5.457  0.108E-25  0.108E-25
  5.467  0.000E+00  0.000E+00
  5.477  0.000E+00  0.000E+00
  5.487  0.000E+00  0.000E+00
  5.497  0.000E+00  0.000E+00
  5.507  0.000E+00  0.000E+00
  5.517  0.000E+00  0.000E+00
  5.527  0.000E+00  0.000E+00
  5.537  0.000E+00  0.000E+00
  5.547  0.000E+00  0.000E+00
  5.557  0.000E+00  0.000E+00
  5.567  0.000E+00  0.000E+00
  5.577  0.000E+00  0.000E+00
  5.587  0.000E+00  0.000E+00
  5.597  0.000E+00  0.000E+00
  5.607  0.000E+00  0.000E+00
  5.617  0.000E+00  0.000E+00
  5.627  0.000E+00  0.000E+00
  5.637  0.000E+00  0.000E+00
  5.647  0.000E+00  0.000E+00
  5.657  0.000E+00  0.000E+00
  5.667  0.000E+00  0.000E+00
  5.677  0.000E+00  0.000E+00
  5.687  0.000E+00  0.000E+00
  5.697  0.000E+00  0.000E+00
  5.707  0.636E-25  0.636E-25
  5.717  0.134E-24  0.134E-24
  5.727  0.277E-24  0.277E-24
  5.737  0.569E-24  0.569E-24
  5.747  0.116E-23  0.116E-23
  5.757  0.389E-15  0.389E-15
  5.767  0.816E-15  0.816E-15
  5.777  0.169E-14  0.169E-14
  5.787  0.348E-14  0.348E-14
  5.797  0.790E-14  0.790E-14
  5.807  0.159E-13  0.159E-13
  5.817  0.318E-13  0.318E-13
  5.827  0.629E-13  0.629E-13
  5.837  0.123E-12  0.123E-12
  5.847  0.238E-12  0.238E-12
  5.857  0.456E-12  0.456E-12
  5.867  0.863E-12  0.863E-12
  5.877  0.162E-11  0.162E-11
  5.887  0.300E-11  0.300E-11
  5.897  0.550E-11  0.550E-11
  5.907  0.999E-11  0.999E-11
  5.917  0.180E-10  0.180E-10
  5.927  0.319E-10  0.319E-10
  5.937  0.561E-10  0.561E-10
  5.947  0.977E-10  0.977E-10
  5.957  0.168E-09  0.168E-09
  5.967  0.287E-09  0.287E-09
  5.977  0.483E-09  0.483E-09
  5.987  0.807E-09  0.807E-09
  5.997  0.133E-08  0.133E-08
  6.007  0.218E-08  0.218E-08
  6.017  0.352E-08  0.352E-08
  6.027  0.563E-08  0.563E-08
  6.037  0.892E-08  0.892E-08
  6.047  0.140E-07  0.140E-07
  6.057  0.217E-07  0.217E-07
  6.067  0.333E-07  0.333E-07
  6.077  0.507E-07  0.507E-07
  6.087  0.762E-07  0.762E-07
  6.097  0.114E-06  0.114E-06
  6.107  0.167E-06  0.167E-06
  6.117  0.244E-06  0.244E-06
  6.127  0.353E-06  0.353E-06
  6.137  0.505E-06  0.505E-06
  6.147  0.716E-06  0.716E-06
  6.157  0.100E-05  0.100E-05
  6.167  0.140E-05  0.140E-05
  6.177  0.192E-05  0.192E-05
  6.187  0.262E-05  0.262E-05
  6.197  0.354E-05  0.354E-05
  6.207  0.474E-05  0.474E-05
  6.217  0.628E-05  0.628E-05
  6.227  0.827E-05  0.827E-05
  6.237  0.108E-04  0.108E-04
  6.247  0.139E-04  0.139E-04
  6.257  0.179E-04  0.179E-04
  6.267  0.227E-04  0.227E-04
  6.277  0.287E-04  0.287E-04
  6.287  0.360E-04  0.360E-04
  6.297  0.448E-04  0.448E-04
  6.307  0.553E-04  0.553E-04
  6.317  0.679E-04  0.679E-04
  6.327  0.829E-04  0.829E-04
  6.337  0.100E-03  0.100E-03
  6.347  0.121E-03  0.121E-03
  6.357  0.145E-03  0.145E-03
  6.367  0.173E-03  0.173E-03
  6.377  0.205E-03  0.205E-03
  6.387  0.242E-03  0.242E-03
  6.397  0.284E-03  0.284E-03
  6.407  0.332E-03  0.332E-03
  6.417  0.385E-03  0.385E-03
  6.427  0.445E-03  0.445E-03
  6.437  0.513E-03  0.513E-03
  6.447  0.587E-03  0.587E-03
  6.457  0.669E-03  0.669E-03
  6.467  0.759E-03  0.759E-03
  6.477  0.857E-03  0.857E-03
  6.487  0.963E-03  0.963E-03
  6.497  0.108E-02  0.108E-02
  6.507  0.120E-02  0.120E-02
  6.517  0.133E-02  0.133E-02
  6.527  0.147E-02  0.147E-02
  6.537  0.162E-02  0.162E-02
  6.547  0.178E-02  0.178E-02
  6.557  0.195E-02  0.195E-02
  6.567  0.213E-02  0.213E-02
  6.577  0.232E-02  0.232E-02
  6.587  0.252E-02  0.252E-02
  6.597  0.273E-02  0.273E-02
  6.607  0.296E-02  0.296E-02
  6.617  0.321E-02  0.321E-02
  6.627  0.347E-02  0.347E-02
  6.637  0.375E-02  0.375E-02
  6.647  0.404E-02  0.404E-02
  6.657  0.436E-02  0.436E-02
  6.667  0.469E-02  0.469E-02
  6.677  0.504E-02  0.504E-02
  6.687  0.540E-02  0.540E-02
  6.697  0.578E-02  0.578E-02
  6.707  0.617E-02  0.617E-02
  6.717  0.657E-02  0.657E-02
  6.727  0.698E-02  0.698E-02
  6.737  0.739E-02  0.739E-02
  6.747  0.781E-02  0.781E-02
  6.757  0.823E-02  0.823E-02
  6.767  0.865E-02  0.865E-02
  6.777  0.907E-02  0.907E-02
  6.787  0.949E-02  0.949E-02
  6.797  0.991E-02  0.991E-02
  6.807  0.103E-01  0.103E-01
  6.817  0.108E-01  0.108E-01
  6.827  0.112E-01  0.112E-01
  6.837  0.117E-01  0.117E-01
  6.847  0.121E-01  0.121E-01
  6.857  0.126E-01  0.126E-01
  6.867  0.132E-01  0.132E-01
  6.877  0.137E-01  0.137E-01
  6.887  0.143E-01  0.143E-01
  6.897  0.150E-01  0.150E-01
  6.907  0.156E-01  0.156E-01
  6.917  0.163E-01  0.163E-01
  6.927  0.170E-01  0.170E-01
  6.937  0.178E-01  0.178E-01
  6.947  0.186E-01  0.186E-01
  6.957  0.194E-01  0.194E-01
  6.967  0.202E-01  0.202E-01
  6.977  0.210E-01  0.210E-01
  6.987  0.218E-01  0.218E-01
  6.997  0.226E-01  0.226E-01
  7.007  0.234E-01  0.234E-01
  7.017  0.241E-01  0.241E-01
  7.027  0.248E-01  0.248E-01
  7.037  0.255E-01  0.255E-01
  7.047  0.262E-01  0.262E-01
  7.057  0.268E-01  0.268E-01
  7.067  0.274E-01  0.274E-01
  7.077  0.280E-01  0.280E-01
  7.087  0.286E-01  0.286E-01
  7.097  0.292E-01  0.292E-01
  7.107  0.298E-01  0.298E-01
  7.117  0.304E-01  0.304E-01
  7.127  0.311E-01  0.311E-01
  7.137  0.318E-01  0.318E-01
  7.147  0.327E-01  0.327E-01
  7.157  0.336E-01  0.336E-01
  7.167  0.347E-01  0.347E-01
  7.177  0.359E-01  0.359E-01
  7.187  0.372E-01  0.372E-01
  7.197  0.387E-01  0.387E-01
  7.207  0.404E-01  0.404E-01
  7.217  0.423E-01  0.423E-01
  7.227  0.443E-01  0.443E-01
  7.237  0.464E-01  0.464E-01
  7.247  0.487E-01  0.487E-01
  7.257  0.511E-01  0.511E-01
  7.267  0.536E-01  0.536E-01
  7.277  0.561E-01  0.561E-01
  7.287  0.587E-01  0.587E-01
  7.297  0.613E-01  0.613E-01
  7.307  0.638E-01  0.638E-01
  7.317  0.663E-01  0.663E-01
  7.327  0.686E-01  0.686E-01
  7.337  0.709E-01  0.709E-01
  7.347  0.730E-01  0.730E-01
  7.357  0.749E-01  0.749E-01
  7.367  0.767E-01  0.767E-01
  7.377  0.783E-01  0.783E-01
  7.387  0.798E-01  0.798E-01
  7.397  0.811E-01  0.811E-01
  7.407  0.824E-01  0.824E-01
  7.417  0.835E-01  0.835E-01
  7.427  0.847E-01  0.847E-01
  7.437  0.858E-01  0.858E-01
  7.447  0.870E-01  0.870E-01
  7.457  0.884E-01  0.884E-01
  7.467  0.900E-01  0.900E-01
  7.477  0.919E-01  0.919E-01
  7.487  0.941E-01  0.941E-01
  7.497  0.966E-01  0.966E-01
  7.507  0.996E-01  0.996E-01
  7.517  0.103E+00  0.103E+00
  7.527  0.107E+00  0.107E+00
  7.537  0.111E+00  0.111E+00
  7.547  0.116E+00  0.116E+00
  7.557  0.121E+00  0.121E+00
  7.567  0.126E+00  0.126E+00
  7.577  0.132E+00  0.132E+00
  7.587  0.138E+00  0.138E+00
  7.597  0.143E+00  0.143E+00
  7.607  0.149E+00  0.149E+00
  7.617  0.155E+00  0.155E+00
  7.627  0.160E+00  0.160E+00
  7.637  0.164E+00  0.164E+00
  7.647  0.169E+00  0.169E+00
  7.657  0.172E+00  0.172E+00
  7.667  0.175E+00  0.175E+00
  7.677  0.178E+00  0.178E+00
  7.687  0.180E+00  0.180E+00
  7.697  0.181E+00  0.181E+00
  7.707  0.182E+00  0.182E+00
  7.717  0.183E+00  0.183E+00
  7.727  0.183E+00  0.183E+00
  7.737  0.183E+00  0.183E+00
  7.747  0.184E+00  0.184E+00
  7.757  0.184E+00  0.184E+00
  7.767  0.184E+00  0.184E+00
  7.777  0.185E+00  0.185E+00
  7.787  0.186E+00  0.186E+00
  7.797  0.187E+00  0.187E+00
  7.807  0.189E+00  0.189E+00
  7.817  0.192E+00  0.192E+00
  7.827  0.195E+00  0.195E+00
  7.837  0.199E+00  0.199E+00
  7.847  0.204E+00  0.204E+00
  7.857  0.208E+00  0.208E+00
  7.867  0.214E+00  0.214E+00
  7.877  0.219E+00  0.219E+00
  7.887  0.225E+00  0.225E+00
  7.897  0.231E+00  0.231E+00
  7.907  0.237E+00  0.237E+00
  7.917  0.244E+00  0.244E+00
  7.927  0.250E+00  0.250E+00
  7.937  0.255E+00  0.255E+00
  7.947  0.261E+00  0.261E+00
  7.957  0.266E+00  0.266E+00
  7.967  0.271E+00  0.271E+00
  7.977  0.275E+00  0.275E+00
  7.987  0.279E+00  0.279E+00
  7.997  0.283E+00  0.283E+00
  8.007  0.287E+00  0.287E+00
  8.017  0.290E+00  0.290E+00
  8.027  0.294E+00  0.294E+00
  8.037  0.297E+00  0.297E+00
  8.047  0.301E+00  0.301E+00
  8.057  0.304E+00  0.304E+00
  8.067  0.308E+00  0.308E+00
  8.077  0.312E+00  0.312E+00
  8.087  0.317E+00  0.317E+00
  8.097  0.322E+00  0.322E+00
  8.107  0.327E+00  0.327E+00
  8.117  0.333E+00  0.333E+00
  8.127  0.339E+00  0.339E+00
  8.137  0.345E+00  0.345E+00
  8.147  0.351E+00  0.351E+00
  8.157  0.357E+00  0.357E+00
  8.167  0.363E+00  0.363E+00
  8.177  0.369E+00  0.369E+00
  8.187  0.375E+00  0.375E+00
  8.197  0.380E+00  0.380E+00
  8.207  0.385E+00  0.385E+00
  8.217  0.389E+00  0.389E+00
  8.227  0.393E+00  0.393E+00
  8.237  0.396E+00  0.396E+00
  8.247  0.398E+00  0.398E+00
  8.257  0.400E+00  0.400E+00
  8.267  0.401E+00  0.401E+00
  8.277  0.401E+00  0.401E+00
  8.287  0.401E+00  0.401E+00
  8.297  0.400E+00  0.400E+00
  8.307  0.399E+00  0.399E+00
  8.317  0.398E+00  0.398E+00
  8.327  0.396E+00  0.396E+00
  8.337  0.394E+00  0.394E+00
  8.347  0.392E+00  0.392E+00
  8.357  0.390E+00  0.390E+00
  8.367  0.387E+00  0.387E+00
  8.377  0.385E+00  0.385E+00
  8.387  0.382E+00  0.382E+00
  8.397  0.379E+00  0.379E+00
  8.407  0.376E+00  0.376E+00
  8.417  0.374E+00  0.374E+00
  8.427  0.371E+00  0.371E+00
  8.437  0.368E+00  0.368E+00
  8.447  0.365E+00  0.365E+00
  8.457  0.362E+00  0.362E+00
  8.467  0.358E+00  0.358E+00
  8.477  0.355E+00  0.355E+00
  8.487  0.352E+00  0.352E+00
  8.497  0.349E+00  0.349E+00
  8.507  0.346E+00  0.346E+00
  8.517  0.342E+00  0.342E+00
  8.527  0.339E+00  0.339E+00
  8.537  0.337E+00  0.337E+00
  8.547  0.334E+00  0.334E+00
  8.557  0.331E+00  0.331E+00
  8.567  0.329E+00  0.329E+00
  8.577  0.326E+00  0.326E+00
  8.587  0.324E+00  0.324E+00
  8.597  0.322E+00  0.322E+00
  8.607  0.320E+00  0.320E+00
  8.617  0.318E+00  0.318E+00
  8.627  0.317E+00  0.317E+00
  8.637  0.315E+00  0.315E+00
  8.647  0.313E+00  0.313E+00
  8.657  0.311E+00  0.311E+00
  8.667  0.309E+00  0.309E+00
  8.677  0.306E+00  0.306E+00
  8.687  0.304E+00  0.304E+00
  8.697  0.301E+00  0.301E+00
  8.707  0.298E+00  0.298E+00
  8.717  0.296E+00  0.296E+00
  8.727  0.292E+00  0.292E+00
  8.737  0.289E+00  0.289E+00
  8.747  0.286E+00  0.286E+00
  8.757  0.282E+00  0.282E+00
  8.767  0.279E+00  0.279E+00
  8.777  0.275E+00  0.275E+00
  8.787  0.272E+00  0.272E+00
  8.797  0.268E+00  0.268E+00
  8.807  0.264E+00  0.264E+00
  8.817  0.261E+00  0.261E+00
  8.827  0.257E+00  0.257E+00
  8.837  0.253E+00  0.253E+00
  8.847  0.248E+00  0.248E+00
  8.857  0.244E+00  0.244E+00
  8.867  0.240E+00  0.240E+00
  8.877  0.235E+00  0.235E+00
  8.887  0.230E+00  0.230E+00
  8.897  0.225E+00  0.225E+00
  8.907  0.220E+00  0.220E+00
  8.917  0.215E+00  0.215E+00
  8.927  0.209E+00  0.209E+00
  8.937  0.204E+00  0.204E+00
  8.947  0.199E+00  0.199E+00
  8.957  0.193E+00  0.193E+00
  8.967  0.188E+00  0.188E+00
  8.977  0.183E+00  0.183E+00
  8.987  0.178E+00  0.178E+00
  8.997  0.173E+00  0.173E+00
  9.007  0.168E+00  0.168E+00
  9.017  0.164E+00  0.164E+00
  9.027  0.159E+00  0.159E+00
  9.037  0.155E+00  0.155E+00
  9.047  0.151E+00  0.151E+00
  9.057  0.148E+00  0.148E+00
  9.067  0.145E+00  0.145E+00
  9.077  0.142E+00  0.142E+00
  9.087  0.139E+00  0.139E+00
  9.097  0.136E+00  0.136E+00
  9.107  0.134E+00  0.134E+00
  9.117  0.132E+00  0.132E+00
  9.127  0.131E+00  0.131E+00
  9.137  0.130E+00  0.130E+00
  9.147  0.129E+00  0.129E+00
  9.157  0.128E+00  0.128E+00
  9.167  0.128E+00  0.128E+00
  9.177  0.127E+00  0.127E+00
  9.187  0.127E+00  0.127E+00
  9.197  0.128E+00  0.128E+00
  9.207  0.128E+00  0.128E+00
  9.217  0.129E+00  0.129E+00
  9.227  0.129E+00  0.129E+00
  9.237  0.130E+00  0.130E+00
  9.247  0.132E+00  0.132E+00
  9.257  0.133E+00  0.133E+00
  9.267  0.135E+00  0.135E+00
  9.277  0.137E+00  0.137E+00
  9.287  0.139E+00  0.139E+00
  9.297  0.141E+00  0.141E+00
  9.307  0.144E+00  0.144E+00
  9.317  0.147E+00  0.147E+00
  9.327  0.150E+00  0.150E+00
  9.337  0.153E+00  0.153E+00
  9.347  0.156E+00  0.156E+00
  9.357  0.160E+00  0.160E+00
  9.367  0.164E+00  0.164E+00
  9.377  0.168E+00  0.168E+00
  9.387  0.172E+00  0.172E+00
  9.397  0.176E+00  0.176E+00
  9.407  0.180E+00  0.180E+00
  9.417  0.184E+00  0.184E+00
  9.427  0.188E+00  0.188E+00
  9.437  0.191E+00  0.191E+00
  9.447  0.195E+00  0.195E+00
  9.457  0.198E+00  0.198E+00
  9.467  0.200E+00  0.200E+00
  9.477  0.203E+00  0.203E+00
  9.487  0.204E+00  0.204E+00
  9.497  0.206E+00  0.206E+00
  9.507  0.207E+00  0.207E+00
  9.517  0.208E+00  0.208E+00
  9.527  0.208E+00  0.208E+00
  9.537  0.208E+00  0.208E+00
  9.547  0.208E+00  0.208E+00
  9.557  0.207E+00  0.207E+00
  9.567  0.206E+00  0.206E+00
  9.577  0.206E+00  0.206E+00
  9.587  0.205E+00  0.205E+00
  9.597  0.203E+00  0.203E+00
  9.607  0.202E+00  0.202E+00
  9.617  0.201E+00  0.201E+00
  9.627  0.200E+00  0.200E+00
  9.637  0.199E+00  0.199E+00
  9.647  0.197E+00  0.197E+00
  9.657  0.196E+00  0.196E+00
  9.667  0.195E+00  0.195E+00
  9.677  0.193E+00  0.193E+00
  9.687  0.192E+00  0.192E+00
  9.697  0.191E+00  0.191E+00
  9.707  0.189E+00  0.189E+00
  9.717  0.187E+00  0.187E+00
  9.727  0.185E+00  0.185E+00
  9.737  0.183E+00  0.183E+00
  9.747  0.181E+00  0.181E+00
  9.757  0.179E+00  0.179E+00
  9.767  0.177E+00  0.177E+00
  9.777  0.174E+00  0.174E+00
  9.787  0.172E+00  0.172E+00
  9.797  0.170E+00  0.170E+00
  9.807  0.167E+00  0.167E+00
  9.817  0.165E+00  0.165E+00
  9.827  0.162E+00  0.162E+00
  9.837  0.160E+00  0.160E+00
  9.847  0.157E+00  0.157E+00
  9.857  0.154E+00  0.154E+00
  9.867  0.151E+00  0.151E+00
  9.877  0.148E+00  0.148E+00
  9.887  0.144E+00  0.144E+00
  9.897  0.141E+00  0.141E+00
  9.907  0.137E+00  0.137E+00
  9.917  0.133E+00  0.133E+00
  9.927  0.128E+00  0.128E+00
  9.937  0.124E+00  0.124E+00
  9.947  0.119E+00  0.119E+00
  9.957  0.114E+00  0.114E+00
  9.967  0.110E+00  0.110E+00
  9.977  0.105E+00  0.105E+00
  9.987  0.100E+00  0.100E+00
  9.997  0.959E-01  0.959E-01
 10.007  0.919E-01  0.919E-01
 10.017  0.882E-01  0.882E-01
 10.027  0.851E-01  0.851E-01
 10.037  0.825E-01  0.825E-01
 10.047  0.806E-01  0.806E-01
 10.057  0.794E-01  0.794E-01
 10.067  0.789E-01  0.789E-01
 10.077  0.792E-01  0.792E-01
 10.087  0.803E-01  0.803E-01
 10.097  0.822E-01  0.822E-01
 10.107  0.847E-01  0.847E-01
 10.117  0.880E-01  0.880E-01
 10.127  0.918E-01  0.918E-01
 10.137  0.961E-01  0.961E-01
 10.147  0.101E+00  0.101E+00
 10.157  0.106E+00  0.106E+00
 10.167  0.111E+00  0.111E+00
 10.177  0.116E+00  0.116E+00
 10.187  0.120E+00  0.120E+00
 10.197  0.125E+00  0.125E+00
 10.207  0.129E+00  0.129E+00
 10.217  0.132E+00  0.132E+00
 10.227  0.135E+00  0.135E+00
 10.237  0.136E+00  0.136E+00
 10.247  0.138E+00  0.138E+00
 10.257  0.138E+00  0.138E+00
 10.267  0.138E+00  0.138E+00
 10.277  0.137E+00  0.137E+00
 10.287  0.135E+00  0.135E+00
 10.297  0.133E+00  0.133E+00
 10.307  0.130E+00  0.130E+00
 10.317  0.127E+00  0.127E+00
 10.327  0.124E+00  0.124E+00
 10.337  0.120E+00  0.120E+00
 10.347  0.117E+00  0.117E+00
 10.357  0.114E+00  0.114E+00
 10.367  0.111E+00  0.111E+00
 10.377  0.108E+00  0.108E+00
 10.387  0.105E+00  0.105E+00
 10.397  0.103E+00  0.103E+00
 10.407  0.101E+00  0.101E+00
 10.417  0.994E-01  0.994E-01
 10.427  0.982E-01  0.982E-01
 10.437  0.974E-01  0.974E-01
 10.447  0.968E-01  0.968E-01
 10.457  0.965E-01  0.965E-01
 10.467  0.965E-01  0.965E-01
 10.477  0.966E-01  0.966E-01
 10.487  0.969E-01  0.969E-01
 10.497  0.973E-01  0.973E-01
 10.507  0.977E-01  0.977E-01
 10.517  0.981E-01  0.981E-01
 10.527  0.985E-01  0.985E-01
 10.537  0.989E-01  0.989E-01
 10.547  0.992E-01  0.992E-01
 10.557  0.994E-01  0.994E-01
 10.567  0.996E-01  0.996E-01
 10.577  0.996E-01  0.996E-01
 10.587  0.995E-01  0.995E-01
 10.597  0.993E-01  0.993E-01
 10.607  0.990E-01  0.990E-01
 10.617  0.987E-01  0.987E-01
 10.627  0.983E-01  0.983E-01
 10.637  0.979E-01  0.979E-01
 10.647  0.974E-01  0.974E-01
 10.657  0.970E-01  0.970E-01
 10.667  0.966E-01  0.966E-01
 10.677  0.962E-01  0.962E-01
 10.687  0.959E-01  0.959E-01
 10.697  0.957E-01  0.957E-01
 10.707  0.956E-01  0.956E-01
 10.717  0.956E-01  0.956E-01
 10.727  0.958E-01  0.958E-01
 10.737  0.962E-01  0.962E-01
 10.747  0.967E-01  0.967E-01
 10.757  0.974E-01  0.974E-01
 10.767  0.983E-01  0.983E-01
 10.777  0.993E-01  0.993E-01
 10.787  0.101E+00  0.101E+00
 10.797  0.102E+00  0.102E+00
 10.807  0.103E+00  0.103E+00
 10.817  0.105E+00  0.105E+00
 10.827  0.107E+00  0.107E+00
 10.837  0.109E+00  0.109E+00
 10.847  0.111E+00  0.111E+00
 10.857  0.113E+00  0.113E+00
 10.867  0.114E+00  0.114E+00
 10.877  0.116E+00  0.116E+00
 10.887  0.118E+00  0.118E+00
 10.897  0.119E+00  0.119E+00
 10.907  0.121E+00  0.121E+00
 10.917  0.122E+00  0.122E+00
 10.927  0.123E+00  0.123E+00
 10.937  0.124E+00  0.124E+00
 10.947  0.124E+00  0.124E+00
 10.957  0.124E+00  0.124E+00
 10.967  0.124E+00  0.124E+00
 10.977  0.123E+00  0.123E+00
 10.987  0.123E+00  0.123E+00
 10.997  0.122E+00  0.122E+00
 11.007  0.120E+00  0.120E+00
 11.017  0.119E+00  0.119E+00
 11.027  0.117E+00  0.117E+00
 11.037  0.116E+00  0.116E+00
 11.047  0.114E+00  0.114E+00
 11.057  0.112E+00  0.112E+00
 11.067  0.110E+00  0.110E+00
 11.077  0.109E+00  0.109E+00
 11.087  0.107E+00  0.107E+00
 11.097  0.106E+00  0.106E+00
 11.107  0.104E+00  0.104E+00
 11.117  0.103E+00  0.103E+00
 11.127  0.102E+00  0.102E+00
 11.137  0.102E+00  0.102E+00
 11.147  0.101E+00  0.101E+00
 11.157  0.101E+00  0.101E+00
 11.167  0.100E+00  0.100E+00
 11.177  0.100E+00  0.100E+00
 11.187  0.100E+00  0.100E+00
 11.197  0.100E+00  0.100E+00
 11.207  0.100E+00  0.100E+00
 11.217  0.100E+00  0.100E+00
 11.227  0.100E+00  0.100E+00
 11.237  0.100E+00  0.100E+00
 11.247  0.101E+00  0.101E+00
 11.257  0.101E+00  0.101E+00
 11.267  0.101E+00  0.101E+00
 11.277  0.101E+00  0.101E+00
 11.287  0.100E+00  0.100E+00
 11.297  0.100E+00  0.100E+00
 11.307  0.100E+00  0.100E+00
 11.317  0.100E+00  0.100E+00
 11.327  0.100E+00  0.100E+00
 11.337  0.100E+00  0.100E+00
 11.347  0.100E+00  0.100E+00
 11.357  0.100E+00  0.100E+00
 11.367  0.101E+00  0.101E+00
 11.377  0.101E+00  0.101E+00
 11.387  0.101E+00  0.101E+00
 11.397  0.102E+00  0.102E+00
 11.407  0.102E+00  0.102E+00
 11.417  0.103E+00  0.103E+00
 11.427  0.104E+00  0.104E+00
 11.437  0.105E+00  0.105E+00
 11.447  0.105E+00  0.105E+00
 11.457  0.106E+00  0.106E+00
 11.467  0.107E+00  0.107E+00
 11.477  0.107E+00  0.107E+00
 11.487  0.108E+00  0.108E+00
 11.497  0.108E+00  0.108E+00
 11.507  0.109E+00  0.109E+00
 11.517  0.109E+00  0.109E+00
 11.527  0.109E+00  0.109E+00
 11.537  0.108E+00  0.108E+00
 11.547  0.108E+00  0.108E+00
 11.557  0.107E+00  0.107E+00
 11.567  0.106E+00  0.106E+00
 11.577  0.105E+00  0.105E+00
 11.587  0.104E+00  0.104E+00
 11.597  0.102E+00  0.102E+00
 11.607  0.101E+00  0.101E+00
 11.617  0.990E-01  0.990E-01
 11.627  0.972E-01  0.972E-01
 11.637  0.954E-01  0.954E-01
 11.647  0.936E-01  0.936E-01
 11.657  0.918E-01  0.918E-01
 11.667  0.900E-01  0.900E-01
 11.677  0.883E-01  0.883E-01
 11.687  0.868E-01  0.868E-01
 11.697  0.854E-01  0.854E-01
 11.707  0.841E-01  0.841E-01
 11.717  0.830E-01  0.830E-01
 11.727  0.820E-01  0.820E-01
 11.737  0.812E-01  0.812E-01
 11.747  0.806E-01  0.806E-01
 11.757  0.801E-01  0.801E-01
 11.767  0.797E-01  0.797E-01
 11.777  0.794E-01  0.794E-01
 11.787  0.792E-01  0.792E-01
 11.797  0.791E-01  0.791E-01
 11.807  0.790E-01  0.790E-01
 11.817  0.788E-01  0.788E-01
 11.827  0.787E-01  0.787E-01
 11.837  0.786E-01  0.786E-01
 11.847  0.784E-01  0.784E-01
 11.857  0.781E-01  0.781E-01
 11.867  0.778E-01  0.778E-01
 11.877  0.775E-01  0.775E-01
 11.887  0.771E-01  0.771E-01
 11.897  0.768E-01  0.768E-01
 11.907  0.764E-01  0.764E-01
 11.917  0.761E-01  0.761E-01
 11.927  0.757E-01  0.757E-01
 11.937  0.755E-01  0.755E-01
 11.947  0.753E-01  0.753E-01
 11.957  0.751E-01  0.751E-01
 11.967  0.751E-01  0.751E-01
 11.977  0.751E-01  0.751E-01
 11.987  0.752E-01  0.752E-01
 11.997  0.753E-01  0.753E-01
 12.007  0.756E-01  0.756E-01
 12.017  0.759E-01  0.759E-01
 12.027  0.762E-01  0.762E-01
 12.037  0.766E-01  0.766E-01
 12.047  0.769E-01  0.769E-01
 12.057  0.773E-01  0.773E-01
 12.067  0.776E-01  0.776E-01
 12.077  0.780E-01  0.780E-01
 12.087  0.782E-01  0.782E-01
 12.097  0.784E-01  0.784E-01
 12.107  0.786E-01  0.786E-01
 12.117  0.787E-01  0.787E-01
 12.127  0.786E-01  0.786E-01
 12.137  0.786E-01  0.786E-01
 12.147  0.784E-01  0.784E-01
 12.157  0.781E-01  0.781E-01
 12.167  0.778E-01  0.778E-01
 12.177  0.774E-01  0.774E-01
 12.187  0.769E-01  0.769E-01
 12.197  0.763E-01  0.763E-01
 12.207  0.757E-01  0.757E-01
 12.217  0.751E-01  0.751E-01
 12.227  0.744E-01  0.744E-01
 12.237  0.737E-01  0.737E-01
 12.247  0.729E-01  0.729E-01
 12.257  0.722E-01  0.722E-01
 12.267  0.715E-01  0.715E-01
 12.277  0.708E-01  0.708E-01
 12.287  0.701E-01  0.701E-01
 12.297  0.695E-01  0.695E-01
 12.307  0.690E-01  0.690E-01
 12.317  0.686E-01  0.686E-01
 12.327  0.682E-01  0.682E-01
 12.337  0.679E-01  0.679E-01
 12.347  0.678E-01  0.678E-01
 12.357  0.677E-01  0.677E-01
 12.367  0.678E-01  0.678E-01
 12.377  0.679E-01  0.679E-01
 12.387  0.682E-01  0.682E-01
 12.397  0.685E-01  0.685E-01
 12.407  0.689E-01  0.689E-01
 12.417  0.694E-01  0.694E-01
 12.427  0.699E-01  0.699E-01
 12.437  0.704E-01  0.704E-01
 12.447  0.709E-01  0.709E-01
 12.457  0.714E-01  0.714E-01
 12.467  0.718E-01  0.718E-01
 12.477  0.722E-01  0.722E-01
 12.487  0.725E-01  0.725E-01
 12.497  0.727E-01  0.727E-01
 12.507  0.728E-01  0.728E-01
 12.517  0.728E-01  0.728E-01
 12.527  0.728E-01  0.728E-01
 12.537  0.727E-01  0.727E-01
 12.547  0.725E-01  0.725E-01
 12.557  0.723E-01  0.723E-01
 12.567  0.720E-01  0.720E-01
 12.577  0.717E-01  0.717E-01
 12.587  0.714E-01  0.714E-01
 12.597  0.712E-01  0.712E-01
 12.607  0.710E-01  0.710E-01
 12.617  0.708E-01  0.708E-01
 12.627  0.707E-01  0.707E-01
 12.637  0.707E-01  0.707E-01
 12.647  0.707E-01  0.707E-01
 12.657  0.708E-01  0.708E-01
 12.667  0.710E-01  0.710E-01
 12.677  0.713E-01  0.713E-01
 12.687  0.716E-01  0.716E-01
 12.697  0.719E-01  0.719E-01
 12.707  0.722E-01  0.722E-01
 12.717  0.725E-01  0.725E-01
 12.727  0.728E-01  0.728E-01
 12.737  0.730E-01  0.730E-01
 12.747  0.731E-01  0.731E-01
 12.757  0.732E-01  0.732E-01
 12.767  0.731E-01  0.731E-01
 12.777  0.730E-01  0.730E-01
 12.787  0.727E-01  0.727E-01
 12.797  0.724E-01  0.724E-01
 12.807  0.719E-01  0.719E-01
 12.817  0.714E-01  0.714E-01
 12.827  0.708E-01  0.708E-01
 12.837  0.701E-01  0.701E-01
 12.847  0.695E-01  0.695E-01
 12.857  0.688E-01  0.688E-01
 12.867  0.682E-01  0.682E-01
 12.877  0.676E-01  0.676E-01
 12.887  0.671E-01  0.671E-01
 12.897  0.667E-01  0.667E-01
 12.907  0.664E-01  0.664E-01
 12.917  0.662E-01  0.662E-01
 12.927  0.661E-01  0.661E-01
 12.937  0.662E-01  0.662E-01
 12.947  0.663E-01  0.663E-01
 12.957  0.665E-01  0.665E-01
 12.967  0.668E-01  0.668E-01
 12.977  0.671E-01  0.671E-01
 12.987  0.674E-01  0.674E-01
 12.997  0.676E-01  0.676E-01
 13.007  0.677E-01  0.677E-01
 13.017  0.677E-01  0.677E-01
 13.027  0.676E-01  0.676E-01
 13.037  0.672E-01  0.672E-01
 13.047  0.665E-01  0.665E-01
 13.057  0.656E-01  0.656E-01
 13.067  0.643E-01  0.643E-01
 13.077  0.628E-01  0.628E-01
 13.087  0.609E-01  0.609E-01
 13.097  0.588E-01  0.588E-01
 13.107  0.564E-01  0.564E-01
 13.117  0.537E-01  0.537E-01
 13.127  0.508E-01  0.508E-01
 13.137  0.478E-01  0.478E-01
 13.147  0.447E-01  0.447E-01
 13.157  0.416E-01  0.416E-01
 13.167  0.385E-01  0.385E-01
 13.177  0.354E-01  0.354E-01
 13.187  0.325E-01  0.325E-01
 13.197  0.297E-01  0.297E-01
 13.207  0.272E-01  0.272E-01
 13.217  0.249E-01  0.249E-01
 13.227  0.228E-01  0.228E-01
 13.237  0.210E-01  0.210E-01
 13.247  0.196E-01  0.196E-01
 13.257  0.184E-01  0.184E-01
 13.267  0.174E-01  0.174E-01
 13.277  0.168E-01  0.168E-01
 13.287  0.164E-01  0.164E-01
 13.297  0.162E-01  0.162E-01
 13.307  0.162E-01  0.162E-01
 13.317  0.164E-01  0.164E-01
 13.327  0.167E-01  0.167E-01
 13.337  0.171E-01  0.171E-01
 13.347  0.176E-01  0.176E-01
 13.357  0.182E-01  0.182E-01
 13.367  0.188E-01  0.188E-01
 13.377  0.193E-01  0.193E-01
 13.387  0.199E-01  0.199E-01
 13.397  0.204E-01  0.204E-01
 13.407  0.209E-01  0.209E-01
 13.417  0.213E-01  0.213E-01
 13.427  0.216E-01  0.216E-01
 13.437  0.218E-01  0.218E-01
 13.447  0.219E-01  0.219E-01
 13.457  0.219E-01  0.219E-01
 13.467  0.218E-01  0.218E-01
 13.477  0.216E-01  0.216E-01
 13.487  0.214E-01  0.214E-01
 13.497  0.210E-01  0.210E-01
 13.507  0.206E-01  0.206E-01
 13.517  0.201E-01  0.201E-01
 13.527  0.196E-01  0.196E-01
 13.537  0.190E-01  0.190E-01
 13.547  0.184E-01  0.184E-01
 13.557  0.178E-01  0.178E-01
 13.567  0.173E-01  0.173E-01
 13.577  0.167E-01  0.167E-01
 13.587  0.162E-01  0.162E-01
 13.597  0.158E-01  0.158E-01
 13.607  0.154E-01  0.154E-01
 13.617  0.151E-01  0.151E-01
 13.627  0.148E-01  0.148E-01
 13.637  0.146E-01  0.146E-01
 13.647  0.144E-01  0.144E-01
 13.657  0.143E-01  0.143E-01
 13.667  0.142E-01  0.142E-01
 13.677  0.142E-01  0.142E-01
 13.687  0.142E-01  0.142E-01
 13.697  0.142E-01  0.142E-01
 13.707  0.142E-01  0.142E-01
 13.717  0.142E-01  0.142E-01
 13.727  0.142E-01  0.142E-01
 13.737  0.141E-01  0.141E-01
 13.747  0.140E-01  0.140E-01
 13.757  0.139E-01  0.139E-01
 13.767  0.138E-01  0.138E-01
 13.777  0.136E-01  0.136E-01
 13.787  0.134E-01  0.134E-01
 13.797  0.131E-01  0.131E-01
 13.807  0.128E-01  0.128E-01
 13.817  0.125E-01  0.125E-01
 13.827  0.122E-01  0.122E-01
 13.837  0.119E-01  0.119E-01
 13.847  0.116E-01  0.116E-01
 13.857  0.113E-01  0.113E-01
 13.867  0.110E-01  0.110E-01
 13.877  0.107E-01  0.107E-01
 13.887  0.104E-01  0.104E-01
 13.897  0.102E-01  0.102E-01
 13.907  0.100E-01  0.100E-01
 13.917  0.983E-02  0.983E-02
 13.927  0.967E-02  0.967E-02
 13.937  0.953E-02  0.953E-02
 13.947  0.942E-02  0.942E-02
 13.957  0.932E-02  0.932E-02
 13.967  0.924E-02  0.924E-02
 13.977  0.917E-02  0.917E-02
 13.987  0.912E-02  0.912E-02
 13.997  0.907E-02  0.907E-02
 14.007  0.903E-02  0.903E-02
 14.017  0.899E-02  0.899E-02
 14.027  0.896E-02  0.896E-02
 14.037  0.892E-02  0.892E-02
 14.047  0.888E-02  0.888E-02
 14.057  0.883E-02  0.883E-02
 14.067  0.877E-02  0.877E-02
 14.077  0.869E-02  0.869E-02
 14.087  0.860E-02  0.860E-02
 14.097  0.848E-02  0.848E-02
 14.107  0.835E-02  0.835E-02
 14.117  0.819E-02  0.819E-02
 14.127  0.800E-02  0.800E-02
 14.137  0.779E-02  0.779E-02
 14.147  0.755E-02  0.755E-02
 14.157  0.728E-02  0.728E-02
 14.167  0.700E-02  0.700E-02
 14.177  0.669E-02  0.669E-02
 14.187  0.638E-02  0.638E-02
 14.197  0.606E-02  0.606E-02
 14.207  0.574E-02  0.574E-02
 14.217  0.543E-02  0.543E-02
 14.227  0.514E-02  0.514E-02
 14.237  0.487E-02  0.487E-02
 14.247  0.465E-02  0.465E-02
 14.257  0.446E-02  0.446E-02
 14.267  0.434E-02  0.434E-02
 14.277  0.426E-02  0.426E-02
 14.287  0.426E-02  0.426E-02
 14.297  0.432E-02  0.432E-02
 14.307  0.445E-02  0.445E-02
 14.317  0.465E-02  0.465E-02
 14.327  0.492E-02  0.492E-02
 14.337  0.526E-02  0.526E-02
 14.347  0.564E-02  0.564E-02
 14.357  0.608E-02  0.608E-02
 14.367  0.656E-02  0.656E-02
 14.377  0.706E-02  0.706E-02
 14.387  0.757E-02  0.757E-02
 14.397  0.808E-02  0.808E-02
 14.407  0.858E-02  0.858E-02
 14.417  0.905E-02  0.905E-02
 14.427  0.949E-02  0.949E-02
 14.437  0.986E-02  0.986E-02
 14.447  0.102E-01  0.102E-01
 14.457  0.104E-01  0.104E-01
 14.467  0.106E-01  0.106E-01
 14.477  0.107E-01  0.107E-01
 14.487  0.106E-01  0.106E-01
 14.497  0.105E-01  0.105E-01
 14.507  0.104E-01  0.104E-01
 14.517  0.101E-01  0.101E-01
 14.527  0.977E-02  0.977E-02
 14.537  0.937E-02  0.937E-02
 14.547  0.892E-02  0.892E-02
 14.557  0.841E-02  0.841E-02
 14.567  0.788E-02  0.788E-02
 14.577  0.732E-02  0.732E-02
 14.587  0.674E-02  0.674E-02
 14.597  0.616E-02  0.616E-02
 14.607  0.558E-02  0.558E-02
 14.617  0.502E-02  0.502E-02
 14.627  0.448E-02  0.448E-02
 14.637  0.397E-02  0.397E-02
 14.647  0.348E-02  0.348E-02
 14.657  0.304E-02  0.304E-02
 14.667  0.263E-02  0.263E-02
 14.677  0.226E-02  0.226E-02
 14.687  0.193E-02  0.193E-02
 14.697  0.164E-02  0.164E-02
 14.707  0.139E-02  0.139E-02
 14.717  0.117E-02  0.117E-02
 14.727  0.995E-03  0.995E-03
 14.737  0.851E-03  0.851E-03
 14.747  0.738E-03  0.738E-03
 14.757  0.654E-03  0.654E-03
 14.767  0.597E-03  0.597E-03
 14.777  0.565E-03  0.565E-03
 14.787  0.556E-03  0.556E-03
 14.797  0.567E-03  0.567E-03
 14.807  0.597E-03  0.597E-03
 14.817  0.644E-03  0.644E-03
 14.827  0.707E-03  0.707E-03
 14.837  0.783E-03  0.783E-03
 14.847  0.872E-03  0.872E-03
 14.857  0.971E-03  0.971E-03
 14.867  0.108E-02  0.108E-02
 14.877  0.120E-02  0.120E-02
 14.887  0.132E-02  0.132E-02
 14.897  0.145E-02  0.145E-02
 14.907  0.158E-02  0.158E-02
 14.917  0.171E-02  0.171E-02
 14.927  0.185E-02  0.185E-02
 14.937  0.198E-02  0.198E-02
 14.947  0.212E-02  0.212E-02
 14.957  0.225E-02  0.225E-02
 14.967  0.238E-02  0.238E-02
 14.977  0.250E-02  0.250E-02
 14.987  0.262E-02  0.262E-02
 14.997  0.273E-02  0.273E-02
 15.007  0.284E-02  0.284E-02
 15.017  0.293E-02  0.293E-02
 15.027  0.301E-02  0.301E-02
 15.037  0.308E-02  0.308E-02
 15.047  0.313E-02  0.313E-02
 15.057  0.316E-02  0.316E-02
 15.067  0.318E-02  0.318E-02
 15.077  0.319E-02  0.319E-02
 15.087  0.317E-02  0.317E-02
 15.097  0.314E-02  0.314E-02
 15.107  0.309E-02  0.309E-02
 15.117  0.302E-02  0.302E-02
 15.127  0.294E-02  0.294E-02
 15.137  0.285E-02  0.285E-02
 15.147  0.274E-02  0.274E-02
 15.157  0.263E-02  0.263E-02
 15.167  0.252E-02  0.252E-02
 15.177  0.240E-02  0.240E-02
 15.187  0.228E-02  0.228E-02
 15.197  0.216E-02  0.216E-02
 15.207  0.205E-02  0.205E-02
 15.217  0.194E-02  0.194E-02
 15.227  0.184E-02  0.184E-02
 15.237  0.175E-02  0.175E-02
 15.247  0.166E-02  0.166E-02
 15.257  0.158E-02  0.158E-02
 15.267  0.151E-02  0.151E-02
 15.277  0.144E-02  0.144E-02
 15.287  0.139E-02  0.139E-02
 15.297  0.134E-02  0.134E-02
 15.307  0.129E-02  0.129E-02
 15.317  0.125E-02  0.125E-02
 15.327  0.121E-02  0.121E-02
 15.337  0.117E-02  0.117E-02
 15.347  0.113E-02  0.113E-02
 15.357  0.110E-02  0.110E-02
 15.367  0.106E-02  0.106E-02
 15.377  0.102E-02  0.102E-02
 15.387  0.979E-03  0.979E-03
 15.397  0.935E-03  0.935E-03
 15.407  0.890E-03  0.890E-03
 15.417  0.842E-03  0.842E-03
 15.427  0.792E-03  0.792E-03
 15.437  0.740E-03  0.740E-03
 15.447  0.687E-03  0.687E-03
 15.457  0.633E-03  0.633E-03
 15.467  0.579E-03  0.579E-03
 15.477  0.525E-03  0.525E-03
 15.487  0.472E-03  0.472E-03
 15.497  0.421E-03  0.421E-03
 15.507  0.372E-03  0.372E-03
 15.517  0.326E-03  0.326E-03
 15.527  0.283E-03  0.283E-03
 15.537  0.243E-03  0.243E-03
 15.547  0.207E-03  0.207E-03
 15.557  0.175E-03  0.175E-03
 15.567  0.146E-03  0.146E-03
 15.577  0.121E-03  0.121E-03
 15.587  0.989E-04  0.989E-04
 15.597  0.801E-04  0.801E-04
 15.607  0.643E-04  0.643E-04
 15.617  0.511E-04  0.511E-04
 15.627  0.402E-04  0.402E-04
 15.637  0.313E-04  0.313E-04
 15.647  0.241E-04  0.241E-04
 15.657  0.184E-04  0.184E-04
 15.667  0.139E-04  0.139E-04
 15.677  0.103E-04  0.103E-04
 15.687  0.765E-05  0.765E-05
 15.697  0.559E-05  0.559E-05
 15.707  0.404E-05  0.404E-05
 15.717  0.289E-05  0.289E-05
 15.727  0.205E-05  0.205E-05
 15.737  0.144E-05  0.144E-05
 15.747  0.996E-06  0.996E-06
 15.757  0.683E-06  0.683E-06
 15.767  0.464E-06  0.464E-06
 15.777  0.311E-06  0.311E-06
 15.787  0.207E-06  0.207E-06
 15.797  0.136E-06  0.136E-06
 15.807  0.885E-07  0.885E-07
 15.817  0.569E-07  0.569E-07
 15.827  0.362E-07  0.362E-07
 15.837  0.228E-07  0.228E-07
 15.847  0.142E-07  0.142E-07
 15.857  0.876E-08  0.876E-08
 15.867  0.534E-08  0.534E-08
 15.877  0.322E-08  0.322E-08
 15.887  0.192E-08  0.192E-08
 15.897  0.113E-08  0.113E-08
 15.907  0.663E-09  0.663E-09
 15.917  0.383E-09  0.383E-09
 15.927  0.219E-09  0.219E-09
 15.937  0.124E-09  0.124E-09
 15.947  0.692E-10  0.692E-10
 15.957  0.383E-10  0.383E-10
 15.967  0.210E-10  0.210E-10
 15.977  0.114E-10  0.114E-10
 15.987  0.609E-11  0.609E-11
 15.997  0.323E-11  0.323E-11
 16.007  0.169E-11  0.169E-11
 16.017  0.877E-12  0.877E-12
 16.027  0.450E-12  0.450E-12
