# E (eV)   ldos(E)   pdos(E)    pdos(E)    pdos(E)   
 -7.003  0.179E-08  0.597E-09  0.597E-09  0.597E-09
 -6.993  0.292E-08  0.972E-09  0.972E-09  0.972E-09
 -6.983  0.470E-08  0.157E-08  0.157E-08  0.157E-08
 -6.973  0.751E-08  0.250E-08  0.250E-08  0.250E-08
 -6.963  0.119E-07  0.396E-08  0.396E-08  0.396E-08
 -6.953  0.186E-07  0.620E-08  0.620E-08  0.620E-08
 -6.943  0.288E-07  0.961E-08  0.961E-08  0.961E-08
 -6.933  0.443E-07  0.148E-07  0.148E-07  0.148E-07
 -6.923  0.674E-07  0.225E-07  0.225E-07  0.225E-07
 -6.913  0.102E-06  0.338E-07  0.338E-07  0.338E-07
 -6.903  0.152E-06  0.505E-07  0.505E-07  0.505E-07
 -6.893  0.224E-06  0.747E-07  0.747E-07  0.747E-07
 -6.883  0.328E-06  0.109E-06  0.109E-06  0.109E-06
 -6.873  0.476E-06  0.159E-06  0.159E-06  0.159E-06
 -6.863  0.685E-06  0.228E-06  0.228E-06  0.228E-06
 -6.853  0.975E-06  0.325E-06  0.325E-06  0.325E-06
 -6.843  0.138E-05  0.459E-06  0.459E-06  0.459E-06
 -6.833  0.192E-05  0.642E-06  0.642E-06  0.642E-06
 -6.823  0.267E-05  0.889E-06  0.889E-06  0.889E-06
 -6.813  0.366E-05  0.122E-05  0.122E-05  0.122E-05
 -6.803  0.499E-05  0.166E-05  0.166E-05  0.166E-05
 -6.793  0.673E-05  0.224E-05  0.224E-05  0.224E-05
 -6.783  0.900E-05  0.300E-05  0.300E-05  0.300E-05
 -6.773  0.119E-04  0.398E-05  0.398E-05  0.398E-05
 -6.763  0.157E-04  0.523E-05  0.523E-05  0.523E-05
 -6.753  0.204E-04  0.682E-05  0.682E-05  0.682E-05
 -6.743  0.264E-04  0.881E-05  0.881E-05  0.881E-05
 -6.733  0.339E-04  0.113E-04  0.113E-04  0.113E-04
 -6.723  0.431E-04  0.144E-04  0.144E-04  0.144E-04
 -6.713  0.543E-04  0.181E-04  0.181E-04  0.181E-04
 -6.703  0.680E-04  0.227E-04  0.227E-04  0.227E-04
 -6.693  0.844E-04  0.281E-04  0.281E-04  0.281E-04
 -6.683  0.104E-03  0.347E-04  0.347E-04  0.347E-04
 -6.673  0.127E-03  0.424E-04  0.424E-04  0.424E-04
 -6.663  0.154E-03  0.515E-04  0.515E-04  0.515E-04
 -6.653  0.186E-03  0.620E-04  0.620E-04  0.620E-04
 -6.643  0.222E-03  0.742E-04  0.742E-04  0.742E-04
 -6.633  0.264E-03  0.881E-04  0.881E-04  0.881E-04
 -6.623  0.312E-03  0.104E-03  0.104E-03  0.104E-03
 -6.613  0.365E-03  0.122E-03  0.122E-03  0.122E-03
 -6.603  0.426E-03  0.142E-03  0.142E-03  0.142E-03
 -6.593  0.492E-03  0.164E-03  0.164E-03  0.164E-03
 -6.583  0.566E-03  0.189E-03  0.189E-03  0.189E-03
 -6.573  0.647E-03  0.216E-03  0.216E-03  0.216E-03
 -6.563  0.736E-03  0.245E-03  0.245E-03  0.245E-03
 -6.553  0.831E-03  0.277E-03  0.277E-03  0.277E-03
 -6.543  0.935E-03  0.312E-03  0.312E-03  0.312E-03
 -6.533  0.105E-02  0.348E-03  0.348E-03  0.348E-03
 -6.523  0.116E-02  0.388E-03  0.388E-03  0.388E-03
 -6.513  0.129E-02  0.429E-03  0.429E-03  0.429E-03
 -6.503  0.142E-02  0.473E-03  0.473E-03  0.473E-03
 -6.493  0.156E-02  0.519E-03  0.519E-03  0.519E-03
 -6.483  0.170E-02  0.567E-03  0.567E-03  0.567E-03
 -6.473  0.185E-02  0.618E-03  0.618E-03  0.618E-03
 -6.463  0.201E-02  0.670E-03  0.670E-03  0.670E-03
 -6.453  0.217E-02  0.723E-03  0.723E-03  0.723E-03
 -6.443  0.234E-02  0.779E-03  0.779E-03  0.779E-03
 -6.433  0.251E-02  0.836E-03  0.836E-03  0.836E-03
 -6.423  0.268E-02  0.894E-03  0.894E-03  0.894E-03
 -6.413  0.286E-02  0.953E-03  0.953E-03  0.953E-03
 -6.403  0.304E-02  0.101E-02  0.101E-02  0.101E-02
 -6.393  0.323E-02  0.108E-02  0.108E-02  0.108E-02
 -6.383  0.341E-02  0.114E-02  0.114E-02  0.114E-02
 -6.373  0.360E-02  0.120E-02  0.120E-02  0.120E-02
 -6.363  0.380E-02  0.127E-02  0.127E-02  0.127E-02
 -6.353  0.399E-02  0.133E-02  0.133E-02  0.133E-02
 -6.343  0.419E-02  0.140E-02  0.140E-02  0.140E-02
 -6.333  0.438E-02  0.146E-02  0.146E-02  0.146E-02
 -6.323  0.458E-02  0.153E-02  0.153E-02  0.153E-02
 -6.313  0.478E-02  0.159E-02  0.159E-02  0.159E-02
 -6.303  0.498E-02  0.166E-02  0.166E-02  0.166E-02
 -6.293  0.518E-02  0.173E-02  0.173E-02  0.173E-02
 -6.283  0.539E-02  0.180E-02  0.180E-02  0.180E-02
 -6.273  0.559E-02  0.186E-02  0.186E-02  0.186E-02
 -6.263  0.579E-02  0.193E-02  0.193E-02  0.193E-02
 -6.253  0.600E-02  0.200E-02  0.200E-02  0.200E-02
 -6.243  0.620E-02  0.207E-02  0.207E-02  0.207E-02
 -6.233  0.640E-02  0.213E-02  0.213E-02  0.213E-02
 -6.223  0.661E-02  0.220E-02  0.220E-02  0.220E-02
 -6.213  0.681E-02  0.227E-02  0.227E-02  0.227E-02
 -6.203  0.701E-02  0.234E-02  0.234E-02  0.234E-02
 -6.193  0.722E-02  0.241E-02  0.241E-02  0.241E-02
 -6.183  0.742E-02  0.247E-02  0.247E-02  0.247E-02
 -6.173  0.762E-02  0.254E-02  0.254E-02  0.254E-02
 -6.163  0.783E-02  0.261E-02  0.261E-02  0.261E-02
 -6.153  0.803E-02  0.268E-02  0.268E-02  0.268E-02
 -6.143  0.824E-02  0.275E-02  0.275E-02  0.275E-02
 -6.133  0.844E-02  0.281E-02  0.281E-02  0.281E-02
 -6.123  0.865E-02  0.288E-02  0.288E-02  0.288E-02
 -6.113  0.885E-02  0.295E-02  0.295E-02  0.295E-02
 -6.103  0.906E-02  0.302E-02  0.302E-02  0.302E-02
 -6.093  0.926E-02  0.309E-02  0.309E-02  0.309E-02
 -6.083  0.947E-02  0.316E-02  0.316E-02  0.316E-02
 -6.073  0.967E-02  0.322E-02  0.322E-02  0.322E-02
 -6.063  0.987E-02  0.329E-02  0.329E-02  0.329E-02
 -6.053  0.101E-01  0.336E-02  0.336E-02  0.336E-02
 -6.043  0.103E-01  0.342E-02  0.342E-02  0.342E-02
 -6.033  0.105E-01  0.349E-02  0.349E-02  0.349E-02
 -6.023  0.107E-01  0.355E-02  0.355E-02  0.355E-02
 -6.013  0.109E-01  0.362E-02  0.362E-02  0.362E-02
 -6.003  0.111E-01  0.368E-02  0.368E-02  0.368E-02
 -5.993  0.112E-01  0.375E-02  0.375E-02  0.375E-02
 -5.983  0.114E-01  0.381E-02  0.381E-02  0.381E-02
 -5.973  0.116E-01  0.388E-02  0.388E-02  0.388E-02
 -5.963  0.118E-01  0.395E-02  0.395E-02  0.395E-02
 -5.953  0.120E-01  0.401E-02  0.401E-02  0.401E-02
 -5.943  0.122E-01  0.408E-02  0.408E-02  0.408E-02
 -5.933  0.124E-01  0.415E-02  0.415E-02  0.415E-02
 -5.923  0.126E-01  0.421E-02  0.421E-02  0.421E-02
 -5.913  0.128E-01  0.428E-02  0.428E-02  0.428E-02
 -5.903  0.130E-01  0.435E-02  0.435E-02  0.435E-02
 -5.893  0.132E-01  0.441E-02  0.441E-02  0.441E-02
 -5.883  0.134E-01  0.448E-02  0.448E-02  0.448E-02
 -5.873  0.136E-01  0.454E-02  0.454E-02  0.454E-02
 -5.863  0.138E-01  0.460E-02  0.460E-02  0.460E-02
 -5.853  0.140E-01  0.467E-02  0.467E-02  0.467E-02
 -5.843  0.142E-01  0.473E-02  0.473E-02  0.473E-02
 -5.833  0.144E-01  0.479E-02  0.479E-02  0.479E-02
 -5.823  0.145E-01  0.485E-02  0.485E-02  0.485E-02
 -5.813  0.147E-01  0.491E-02  0.491E-02  0.491E-02
 -5.803  0.149E-01  0.497E-02  0.497E-02  0.497E-02
 -5.793  0.151E-01  0.503E-02  0.503E-02  0.503E-02
 -5.783  0.153E-01  0.509E-02  0.509E-02  0.509E-02
 -5.773  0.155E-01  0.515E-02  0.515E-02  0.515E-02
 -5.763  0.156E-01  0.522E-02  0.522E-02  0.522E-02
 -5.753  0.158E-01  0.528E-02  0.528E-02  0.528E-02
 -5.743  0.160E-01  0.535E-02  0.535E-02  0.535E-02
 -5.733  0.162E-01  0.541E-02  0.541E-02  0.541E-02
 -5.723  0.164E-01  0.548E-02  0.548E-02  0.548E-02
 -5.713  0.166E-01  0.554E-02  0.554E-02  0.554E-02
 -5.703  0.168E-01  0.561E-02  0.561E-02  0.561E-02
 -5.693  0.170E-01  0.567E-02  0.567E-02  0.567E-02
 -5.683  0.172E-01  0.573E-02  0.573E-02  0.573E-02
 -5.673  0.174E-01  0.580E-02  0.580E-02  0.580E-02
 -5.663  0.176E-01  0.586E-02  0.586E-02  0.586E-02
 -5.653  0.177E-01  0.591E-02  0.591E-02  0.591E-02
 -5.643  0.179E-01  0.597E-02  0.597E-02  0.597E-02
 -5.633  0.181E-01  0.602E-02  0.602E-02  0.602E-02
 -5.623  0.182E-01  0.608E-02  0.608E-02  0.608E-02
 -5.613  0.184E-01  0.613E-02  0.613E-02  0.613E-02
 -5.603  0.186E-01  0.619E-02  0.619E-02  0.619E-02
 -5.593  0.187E-01  0.624E-02  0.624E-02  0.624E-02
 -5.583  0.189E-01  0.630E-02  0.630E-02  0.630E-02
 -5.573  0.191E-01  0.636E-02  0.636E-02  0.636E-02
 -5.563  0.192E-01  0.641E-02  0.641E-02  0.641E-02
 -5.553  0.194E-01  0.648E-02  0.648E-02  0.648E-02
 -5.543  0.196E-01  0.654E-02  0.654E-02  0.654E-02
 -5.533  0.198E-01  0.660E-02  0.660E-02  0.660E-02
 -5.523  0.200E-01  0.666E-02  0.666E-02  0.666E-02
 -5.513  0.202E-01  0.673E-02  0.673E-02  0.673E-02
 -5.503  0.204E-01  0.679E-02  0.679E-02  0.679E-02
 -5.493  0.206E-01  0.686E-02  0.686E-02  0.686E-02
 -5.483  0.208E-01  0.692E-02  0.692E-02  0.692E-02
 -5.473  0.209E-01  0.698E-02  0.698E-02  0.698E-02
 -5.463  0.211E-01  0.704E-02  0.704E-02  0.704E-02
 -5.453  0.213E-01  0.710E-02  0.710E-02  0.710E-02
 -5.443  0.215E-01  0.715E-02  0.715E-02  0.715E-02
 -5.433  0.216E-01  0.720E-02  0.720E-02  0.720E-02
 -5.423  0.218E-01  0.725E-02  0.725E-02  0.725E-02
 -5.413  0.219E-01  0.730E-02  0.730E-02  0.730E-02
 -5.403  0.221E-01  0.735E-02  0.735E-02  0.735E-02
 -5.393  0.222E-01  0.740E-02  0.740E-02  0.740E-02
 -5.383  0.224E-01  0.745E-02  0.745E-02  0.745E-02
 -5.373  0.225E-01  0.751E-02  0.751E-02  0.751E-02
 -5.363  0.227E-01  0.756E-02  0.756E-02  0.756E-02
 -5.353  0.229E-01  0.762E-02  0.762E-02  0.762E-02
 -5.343  0.230E-01  0.768E-02  0.768E-02  0.768E-02
 -5.333  0.232E-01  0.774E-02  0.774E-02  0.774E-02
 -5.323  0.234E-01  0.780E-02  0.780E-02  0.780E-02
 -5.313  0.236E-01  0.786E-02  0.786E-02  0.786E-02
 -5.303  0.238E-01  0.793E-02  0.793E-02  0.793E-02
 -5.293  0.240E-01  0.800E-02  0.800E-02  0.800E-02
 -5.283  0.242E-01  0.806E-02  0.806E-02  0.806E-02
 -5.273  0.244E-01  0.813E-02  0.813E-02  0.813E-02
 -5.263  0.246E-01  0.819E-02  0.819E-02  0.819E-02
 -5.253  0.248E-01  0.825E-02  0.825E-02  0.825E-02
 -5.243  0.249E-01  0.831E-02  0.831E-02  0.831E-02
 -5.233  0.251E-01  0.837E-02  0.837E-02  0.837E-02
 -5.223  0.253E-01  0.843E-02  0.843E-02  0.843E-02
 -5.213  0.255E-01  0.849E-02  0.849E-02  0.849E-02
 -5.203  0.256E-01  0.854E-02  0.854E-02  0.854E-02
 -5.193  0.258E-01  0.860E-02  0.860E-02  0.860E-02
 -5.183  0.260E-01  0.866E-02  0.866E-02  0.866E-02
 -5.173  0.262E-01  0.872E-02  0.872E-02  0.872E-02
 -5.163  0.264E-01  0.879E-02  0.879E-02  0.879E-02
 -5.153  0.266E-01  0.885E-02  0.885E-02  0.885E-02
 -5.143  0.268E-01  0.893E-02  0.893E-02  0.893E-02
 -5.133  0.270E-01  0.900E-02  0.900E-02  0.900E-02
 -5.123  0.272E-01  0.908E-02  0.908E-02  0.908E-02
 -5.113  0.275E-01  0.916E-02  0.916E-02  0.916E-02
 -5.103  0.277E-01  0.924E-02  0.924E-02  0.924E-02
 -5.093  0.280E-01  0.933E-02  0.933E-02  0.933E-02
 -5.083  0.282E-01  0.941E-02  0.941E-02  0.941E-02
 -5.073  0.285E-01  0.949E-02  0.949E-02  0.949E-02
 -5.063  0.287E-01  0.958E-02  0.958E-02  0.958E-02
 -5.053  0.290E-01  0.965E-02  0.965E-02  0.965E-02
 -5.043  0.292E-01  0.973E-02  0.973E-02  0.973E-02
 -5.033  0.294E-01  0.980E-02  0.980E-02  0.980E-02
 -5.023  0.296E-01  0.986E-02  0.986E-02  0.986E-02
 -5.013  0.297E-01  0.992E-02  0.992E-02  0.992E-02
 -5.003  0.299E-01  0.997E-02  0.997E-02  0.997E-02
 -4.993  0.300E-01  0.100E-01  0.100E-01  0.100E-01
 -4.983  0.302E-01  0.101E-01  0.101E-01  0.101E-01
 -4.973  0.302E-01  0.101E-01  0.101E-01  0.101E-01
 -4.963  0.303E-01  0.101E-01  0.101E-01  0.101E-01
 -4.953  0.304E-01  0.101E-01  0.101E-01  0.101E-01
 -4.943  0.304E-01  0.101E-01  0.101E-01  0.101E-01
 -4.933  0.304E-01  0.101E-01  0.101E-01  0.101E-01
 -4.923  0.304E-01  0.101E-01  0.101E-01  0.101E-01
 -4.913  0.304E-01  0.101E-01  0.101E-01  0.101E-01
 -4.903  0.303E-01  0.101E-01  0.101E-01  0.101E-01
 -4.893  0.302E-01  0.101E-01  0.101E-01  0.101E-01
 -4.883  0.301E-01  0.100E-01  0.100E-01  0.100E-01
 -4.873  0.299E-01  0.998E-02  0.998E-02  0.998E-02
 -4.863  0.298E-01  0.992E-02  0.992E-02  0.992E-02
 -4.853  0.296E-01  0.986E-02  0.986E-02  0.986E-02
 -4.843  0.294E-01  0.979E-02  0.979E-02  0.979E-02
 -4.833  0.291E-01  0.971E-02  0.971E-02  0.971E-02
 -4.823  0.289E-01  0.962E-02  0.962E-02  0.962E-02
 -4.813  0.286E-01  0.953E-02  0.953E-02  0.953E-02
 -4.803  0.283E-01  0.943E-02  0.943E-02  0.943E-02
 -4.793  0.280E-01  0.933E-02  0.933E-02  0.933E-02
 -4.783  0.277E-01  0.923E-02  0.923E-02  0.923E-02
 -4.773  0.274E-01  0.912E-02  0.912E-02  0.912E-02
 -4.763  0.270E-01  0.900E-02  0.900E-02  0.900E-02
 -4.753  0.267E-01  0.889E-02  0.889E-02  0.889E-02
 -4.743  0.263E-01  0.877E-02  0.877E-02  0.877E-02
 -4.733  0.259E-01  0.865E-02  0.865E-02  0.865E-02
 -4.723  0.256E-01  0.852E-02  0.852E-02  0.852E-02
 -4.713  0.252E-01  0.840E-02  0.840E-02  0.840E-02
 -4.703  0.248E-01  0.827E-02  0.827E-02  0.827E-02
 -4.693  0.244E-01  0.813E-02  0.813E-02  0.813E-02
 -4.683  0.240E-01  0.800E-02  0.800E-02  0.800E-02
 -4.673  0.236E-01  0.786E-02  0.786E-02  0.786E-02
 -4.663  0.231E-01  0.772E-02  0.772E-02  0.772E-02
 -4.653  0.227E-01  0.757E-02  0.757E-02  0.757E-02
 -4.643  0.223E-01  0.742E-02  0.742E-02  0.742E-02
 -4.633  0.218E-01  0.727E-02  0.727E-02  0.727E-02
 -4.623  0.214E-01  0.712E-02  0.712E-02  0.712E-02
 -4.613  0.209E-01  0.696E-02  0.696E-02  0.696E-02
 -4.603  0.204E-01  0.680E-02  0.680E-02  0.680E-02
 -4.593  0.199E-01  0.664E-02  0.664E-02  0.664E-02
 -4.583  0.194E-01  0.647E-02  0.647E-02  0.647E-02
 -4.573  0.189E-01  0.630E-02  0.630E-02  0.630E-02
 -4.563  0.184E-01  0.612E-02  0.612E-02  0.612E-02
 -4.553  0.178E-01  0.595E-02  0.595E-02  0.595E-02
 -4.543  0.173E-01  0.576E-02  0.576E-02  0.576E-02
 -4.533  0.167E-01  0.558E-02  0.558E-02  0.558E-02
 -4.523  0.162E-01  0.539E-02  0.539E-02  0.539E-02
 -4.513  0.156E-01  0.520E-02  0.520E-02  0.520E-02
 -4.503  0.150E-01  0.500E-02  0.500E-02  0.500E-02
 -4.493  0.144E-01  0.480E-02  0.480E-02  0.480E-02
 -4.483  0.138E-01  0.460E-02  0.460E-02  0.460E-02
 -4.473  0.132E-01  0.439E-02  0.439E-02  0.439E-02
 -4.463  0.125E-01  0.418E-02  0.418E-02  0.418E-02
 -4.453  0.119E-01  0.397E-02  0.397E-02  0.397E-02
 -4.443  0.113E-01  0.376E-02  0.376E-02  0.376E-02
 -4.433  0.106E-01  0.355E-02  0.355E-02  0.355E-02
 -4.423  0.100E-01  0.333E-02  0.333E-02  0.333E-02
 -4.413  0.936E-02  0.312E-02  0.312E-02  0.312E-02
 -4.403  0.873E-02  0.291E-02  0.291E-02  0.291E-02
 -4.393  0.810E-02  0.270E-02  0.270E-02  0.270E-02
 -4.383  0.749E-02  0.250E-02  0.250E-02  0.250E-02
 -4.373  0.688E-02  0.229E-02  0.229E-02  0.229E-02
 -4.363  0.630E-02  0.210E-02  0.210E-02  0.210E-02
 -4.353  0.573E-02  0.191E-02  0.191E-02  0.191E-02
 -4.343  0.519E-02  0.173E-02  0.173E-02  0.173E-02
 -4.333  0.467E-02  0.156E-02  0.156E-02  0.156E-02
 -4.323  0.418E-02  0.139E-02  0.139E-02  0.139E-02
 -4.313  0.371E-02  0.124E-02  0.124E-02  0.124E-02
 -4.303  0.328E-02  0.109E-02  0.109E-02  0.109E-02
 -4.293  0.288E-02  0.959E-03  0.959E-03  0.959E-03
 -4.283  0.251E-02  0.836E-03  0.836E-03  0.836E-03
 -4.273  0.217E-02  0.724E-03  0.724E-03  0.724E-03
 -4.263  0.187E-02  0.622E-03  0.622E-03  0.622E-03
 -4.253  0.159E-02  0.531E-03  0.531E-03  0.531E-03
 -4.243  0.135E-02  0.449E-03  0.449E-03  0.449E-03
 -4.233  0.113E-02  0.378E-03  0.378E-03  0.378E-03
 -4.223  0.945E-03  0.315E-03  0.315E-03  0.315E-03
 -4.213  0.782E-03  0.261E-03  0.261E-03  0.261E-03
 -4.203  0.642E-03  0.214E-03  0.214E-03  0.214E-03
 -4.193  0.523E-03  0.174E-03  0.174E-03  0.174E-03
 -4.183  0.422E-03  0.141E-03  0.141E-03  0.141E-03
 -4.173  0.338E-03  0.113E-03  0.113E-03  0.113E-03
 -4.163  0.268E-03  0.894E-04  0.894E-04  0.894E-04
 -4.153  0.211E-03  0.704E-04  0.704E-04  0.704E-04
 -4.143  0.165E-03  0.549E-04  0.549E-04  0.549E-04
 -4.133  0.127E-03  0.425E-04  0.425E-04  0.425E-04
 -4.123  0.978E-04  0.326E-04  0.326E-04  0.326E-04
 -4.113  0.743E-04  0.248E-04  0.248E-04  0.248E-04
 -4.103  0.559E-04  0.186E-04  0.186E-04  0.186E-04
 -4.093  0.417E-04  0.139E-04  0.139E-04  0.139E-04
 -4.083  0.309E-04  0.103E-04  0.103E-04  0.103E-04
 -4.073  0.226E-04  0.754E-05  0.754E-05  0.754E-05
 -4.063  0.164E-04  0.547E-05  0.547E-05  0.547E-05
 -4.053  0.118E-04  0.394E-05  0.394E-05  0.394E-05
 -4.043  0.842E-05  0.281E-05  0.281E-05  0.281E-05
 -4.033  0.594E-05  0.198E-05  0.198E-05  0.198E-05
 -4.023  0.415E-05  0.138E-05  0.138E-05  0.138E-05
 -4.013  0.288E-05  0.958E-06  0.958E-06  0.958E-06
 -4.003  0.197E-05  0.657E-06  0.657E-06  0.657E-06
 -3.993  0.134E-05  0.447E-06  0.447E-06  0.447E-06
 -3.983  0.901E-06  0.300E-06  0.300E-06  0.300E-06
 -3.973  0.601E-06  0.200E-06  0.200E-06  0.200E-06
 -3.963  0.396E-06  0.132E-06  0.132E-06  0.132E-06
 -3.953  0.259E-06  0.863E-07  0.863E-07  0.863E-07
 -3.943  0.168E-06  0.558E-07  0.558E-07  0.558E-07
 -3.933  0.107E-06  0.358E-07  0.358E-07  0.358E-07
 -3.923  0.681E-07  0.227E-07  0.227E-07  0.227E-07
 -3.913  0.428E-07  0.143E-07  0.143E-07  0.143E-07
 -3.903  0.266E-07  0.887E-08  0.887E-08  0.887E-08
 -3.893  0.164E-07  0.546E-08  0.546E-08  0.546E-08
 -3.883  0.999E-08  0.333E-08  0.333E-08  0.333E-08
 -3.873  0.603E-08  0.201E-08  0.201E-08  0.201E-08
 -3.863  0.360E-08  0.120E-08  0.120E-08  0.120E-08
 -3.853  0.213E-08  0.710E-09  0.710E-09  0.710E-09
 -3.843  0.125E-08  0.416E-09  0.416E-09  0.416E-09
 -3.833  0.724E-09  0.241E-09  0.241E-09  0.241E-09
 -3.823  0.415E-09  0.138E-09  0.138E-09  0.138E-09
 -3.813  0.236E-09  0.787E-10  0.787E-10  0.787E-10
 -3.803  0.133E-09  0.442E-10  0.442E-10  0.442E-10
 -3.793  0.739E-10  0.246E-10  0.246E-10  0.246E-10
 -3.783  0.407E-10  0.136E-10  0.136E-10  0.136E-10
 -3.773  0.222E-10  0.740E-11  0.740E-11  0.740E-11
 -3.763  0.120E-10  0.400E-11  0.400E-11  0.400E-11
 -3.753  0.641E-11  0.214E-11  0.214E-11  0.214E-11
 -3.743  0.339E-11  0.113E-11  0.113E-11  0.113E-11
 -3.733  0.177E-11  0.591E-12  0.591E-12  0.591E-12
 -3.723  0.918E-12  0.306E-12  0.306E-12  0.306E-12
 -3.713  0.469E-12  0.156E-12  0.156E-12  0.156E-12
 -3.703  0.236E-12  0.788E-13  0.788E-13  0.788E-13
 -3.693  0.118E-12  0.394E-13  0.394E-13  0.394E-13
 -3.683  0.581E-13  0.194E-13  0.194E-13  0.194E-13
 -3.673  0.279E-13  0.930E-14  0.930E-14  0.930E-14
 -3.663  0.126E-13  0.420E-14  0.420E-14  0.420E-14
 -3.653  0.526E-14  0.175E-14  0.175E-14  0.175E-14
 -3.643  0.219E-14  0.731E-15  0.731E-15  0.731E-15
 -3.633  0.835E-15  0.278E-15  0.278E-15  0.278E-15
 -3.623  0.103E-15  0.344E-16  0.344E-16  0.344E-16
 -3.613  0.556E-18  0.185E-18  0.185E-18  0.185E-18
 -3.603  0.507E-19  0.169E-19  0.169E-19  0.169E-19
 -3.593  0.000E+00  0.000E+00  0.000E+00  0.000E+00
 -3.583  0.000E+00  0.000E+00  0.000E+00  0.000E+00
 -3.573  0.000E+00  0.000E+00  0.000E+00  0.000E+00
 -3.563  0.000E+00  0.000E+00  0.000E+00  0.000E+00
 -3.553  0.000E+00  0.000E+00  0.000E+00  0.000E+00
 -3.543  0.000E+00  0.000E+00  0.000E+00  0.000E+00
 -3.533  0.000E+00  0.000E+00  0.000E+00  0.000E+00
 -3.523  0.000E+00  0.000E+00  0.000E+00  0.000E+00
 -3.513  0.000E+00  0.000E+00  0.000E+00  0.000E+00
 -3.503  0.000E+00  0.000E+00  0.000E+00  0.000E+00
 -3.493  0.000E+00  0.000E+00  0.000E+00  0.000E+00
 -3.483  0.000E+00  0.000E+00  0.000E+00  0.000E+00
 -3.473  0.000E+00  0.000E+00  0.000E+00  0.000E+00
 -3.463  0.000E+00  0.000E+00  0.000E+00  0.000E+00
 -3.453  0.000E+00  0.000E+00  0.000E+00  0.000E+00
 -3.443  0.000E+00  0.000E+00  0.000E+00  0.000E+00
 -3.433  0.000E+00  0.000E+00  0.000E+00  0.000E+00
 -3.423  0.000E+00  0.000E+00  0.000E+00  0.000E+00
 -3.413  0.000E+00  0.000E+00  0.000E+00  0.000E+00
 -3.403  0.000E+00  0.000E+00  0.000E+00  0.000E+00
 -3.393  0.000E+00  0.000E+00  0.000E+00  0.000E+00
 -3.383  0.000E+00  0.000E+00  0.000E+00  0.000E+00
 -3.373  0.000E+00  0.000E+00  0.000E+00  0.000E+00
 -3.363  0.000E+00  0.000E+00  0.000E+00  0.000E+00
 -3.353  0.000E+00  0.000E+00  0.000E+00  0.000E+00
 -3.343  0.000E+00  0.000E+00  0.000E+00  0.000E+00
 -3.333  0.000E+00  0.000E+00  0.000E+00  0.000E+00
 -3.323  0.000E+00  0.000E+00  0.000E+00  0.000E+00
 -3.313  0.000E+00  0.000E+00  0.000E+00  0.000E+00
 -3.303  0.000E+00  0.000E+00  0.000E+00  0.000E+00
 -3.293  0.000E+00  0.000E+00  0.000E+00  0.000E+00
 -3.283  0.000E+00  0.000E+00  0.000E+00  0.000E+00
 -3.273  0.000E+00  0.000E+00  0.000E+00  0.000E+00
 -3.263  0.000E+00  0.000E+00  0.000E+00  0.000E+00
 -3.253  0.000E+00  0.000E+00  0.000E+00  0.000E+00
 -3.243  0.000E+00  0.000E+00  0.000E+00  0.000E+00
 -3.233  0.000E+00  0.000E+00  0.000E+00  0.000E+00
 -3.223  0.000E+00  0.000E+00  0.000E+00  0.000E+00
 -3.213  0.000E+00  0.000E+00  0.000E+00  0.000E+00
 -3.203  0.000E+00  0.000E+00  0.000E+00  0.000E+00
 -3.193  0.000E+00  0.000E+00  0.000E+00  0.000E+00
 -3.183  0.000E+00  0.000E+00  0.000E+00  0.000E+00
 -3.173  0.000E+00  0.000E+00  0.000E+00  0.000E+00
 -3.163  0.000E+00  0.000E+00  0.000E+00  0.000E+00
 -3.153  0.000E+00  0.000E+00  0.000E+00  0.000E+00
 -3.143  0.000E+00  0.000E+00  0.000E+00  0.000E+00
 -3.133  0.000E+00  0.000E+00  0.000E+00  0.000E+00
 -3.123  0.000E+00  0.000E+00  0.000E+00  0.000E+00
 -3.113  0.000E+00  0.000E+00  0.000E+00  0.000E+00
 -3.103  0.000E+00  0.000E+00  0.000E+00  0.000E+00
 -3.093  0.000E+00  0.000E+00  0.000E+00  0.000E+00
 -3.083  0.000E+00  0.000E+00  0.000E+00  0.000E+00
 -3.073  0.000E+00  0.000E+00  0.000E+00  0.000E+00
 -3.063  0.000E+00  0.000E+00  0.000E+00  0.000E+00
 -3.053  0.000E+00  0.000E+00  0.000E+00  0.000E+00
 -3.043  0.000E+00  0.000E+00  0.000E+00  0.000E+00
 -3.033  0.000E+00  0.000E+00  0.000E+00  0.000E+00
 -3.023  0.000E+00  0.000E+00  0.000E+00  0.000E+00
 -3.013  0.000E+00  0.000E+00  0.000E+00  0.000E+00
 -3.003  0.000E+00  0.000E+00  0.000E+00  0.000E+00
 -2.993  0.000E+00  0.000E+00  0.000E+00  0.000E+00
 -2.983  0.000E+00  0.000E+00  0.000E+00  0.000E+00
 -2.973  0.000E+00  0.000E+00  0.000E+00  0.000E+00
 -2.963  0.000E+00  0.000E+00  0.000E+00  0.000E+00
 -2.953  0.000E+00  0.000E+00  0.000E+00  0.000E+00
 -2.943  0.000E+00  0.000E+00  0.000E+00  0.000E+00
 -2.933  0.000E+00  0.000E+00  0.000E+00  0.000E+00
 -2.923  0.000E+00  0.000E+00  0.000E+00  0.000E+00
 -2.913  0.000E+00  0.000E+00  0.000E+00  0.000E+00
 -2.903  0.000E+00  0.000E+00  0.000E+00  0.000E+00
 -2.893  0.000E+00  0.000E+00  0.000E+00  0.000E+00
 -2.883  0.000E+00  0.000E+00  0.000E+00  0.000E+00
 -2.873  0.000E+00  0.000E+00  0.000E+00  0.000E+00
 -2.863  0.000E+00  0.000E+00  0.000E+00  0.000E+00
 -2.853  0.000E+00  0.000E+00  0.000E+00  0.000E+00
 -2.843  0.000E+00  0.000E+00  0.000E+00  0.000E+00
 -2.833  0.000E+00  0.000E+00  0.000E+00  0.000E+00
 -2.823  0.000E+00  0.000E+00  0.000E+00  0.000E+00
 -2.813  0.000E+00  0.000E+00  0.000E+00  0.000E+00
 -2.803  0.000E+00  0.000E+00  0.000E+00  0.000E+00
 -2.793  0.000E+00  0.000E+00  0.000E+00  0.000E+00
 -2.783  0.000E+00  0.000E+00  0.000E+00  0.000E+00
 -2.773  0.000E+00  0.000E+00  0.000E+00  0.000E+00
 -2.763  0.000E+00  0.000E+00  0.000E+00  0.000E+00
 -2.753  0.000E+00  0.000E+00  0.000E+00  0.000E+00
 -2.743  0.000E+00  0.000E+00  0.000E+00  0.000E+00
 -2.733  0.000E+00  0.000E+00  0.000E+00  0.000E+00
 -2.723  0.000E+00  0.000E+00  0.000E+00  0.000E+00
 -2.713  0.000E+00  0.000E+00  0.000E+00  0.000E+00
 -2.703  0.000E+00  0.000E+00  0.000E+00  0.000E+00
 -2.693  0.000E+00  0.000E+00  0.000E+00  0.000E+00
 -2.683  0.000E+00  0.000E+00  0.000E+00  0.000E+00
 -2.673  0.000E+00  0.000E+00  0.000E+00  0.000E+00
 -2.663  0.000E+00  0.000E+00  0.000E+00  0.000E+00
 -2.653  0.000E+00  0.000E+00  0.000E+00  0.000E+00
 -2.643  0.000E+00  0.000E+00  0.000E+00  0.000E+00
 -2.633  0.000E+00  0.000E+00  0.000E+00  0.000E+00
 -2.623  0.000E+00  0.000E+00  0.000E+00  0.000E+00
 -2.613  0.000E+00  0.000E+00  0.000E+00  0.000E+00
 -2.603  0.000E+00  0.000E+00  0.000E+00  0.000E+00
 -2.593  0.000E+00  0.000E+00  0.000E+00  0.000E+00
 -2.583  0.000E+00  0.000E+00  0.000E+00  0.000E+00
 -2.573  0.000E+00  0.000E+00  0.000E+00  0.000E+00
 -2.563  0.000E+00  0.000E+00  0.000E+00  0.000E+00
 -2.553  0.000E+00  0.000E+00  0.000E+00  0.000E+00
 -2.543  0.000E+00  0.000E+00  0.000E+00  0.000E+00
 -2.533  0.000E+00  0.000E+00  0.000E+00  0.000E+00
 -2.523  0.000E+00  0.000E+00  0.000E+00  0.000E+00
 -2.513  0.000E+00  0.000E+00  0.000E+00  0.000E+00
 -2.503  0.000E+00  0.000E+00  0.000E+00  0.000E+00
 -2.493  0.000E+00  0.000E+00  0.000E+00  0.000E+00
 -2.483  0.000E+00  0.000E+00  0.000E+00  0.000E+00
 -2.473  0.000E+00  0.000E+00  0.000E+00  0.000E+00
 -2.463  0.000E+00  0.000E+00  0.000E+00  0.000E+00
 -2.453  0.000E+00  0.000E+00  0.000E+00  0.000E+00
 -2.443  0.000E+00  0.000E+00  0.000E+00  0.000E+00
 -2.433  0.000E+00  0.000E+00  0.000E+00  0.000E+00
 -2.423  0.000E+00  0.000E+00  0.000E+00  0.000E+00
 -2.413  0.000E+00  0.000E+00  0.000E+00  0.000E+00
 -2.403  0.000E+00  0.000E+00  0.000E+00  0.000E+00
 -2.393  0.000E+00  0.000E+00  0.000E+00  0.000E+00
 -2.383  0.000E+00  0.000E+00  0.000E+00  0.000E+00
 -2.373  0.000E+00  0.000E+00  0.000E+00  0.000E+00
 -2.363  0.000E+00  0.000E+00  0.000E+00  0.000E+00
 -2.353  0.000E+00  0.000E+00  0.000E+00  0.000E+00
 -2.343  0.000E+00  0.000E+00  0.000E+00  0.000E+00
 -2.333  0.000E+00  0.000E+00  0.000E+00  0.000E+00
 -2.323  0.000E+00  0.000E+00  0.000E+00  0.000E+00
 -2.313  0.000E+00  0.000E+00  0.000E+00  0.000E+00
 -2.303  0.000E+00  0.000E+00  0.000E+00  0.000E+00
 -2.293  0.000E+00  0.000E+00  0.000E+00  0.000E+00
 -2.283  0.000E+00  0.000E+00  0.000E+00  0.000E+00
 -2.273  0.000E+00  0.000E+00  0.000E+00  0.000E+00
 -2.263  0.000E+00  0.000E+00  0.000E+00  0.000E+00
 -2.253  0.000E+00  0.000E+00  0.000E+00  0.000E+00
 -2.243  0.000E+00  0.000E+00  0.000E+00  0.000E+00
 -2.233  0.000E+00  0.000E+00  0.000E+00  0.000E+00
 -2.223  0.000E+00  0.000E+00  0.000E+00  0.000E+00
 -2.213  0.000E+00  0.000E+00  0.000E+00  0.000E+00
 -2.203  0.000E+00  0.000E+00  0.000E+00  0.000E+00
 -2.193  0.000E+00  0.000E+00  0.000E+00  0.000E+00
 -2.183  0.000E+00  0.000E+00  0.000E+00  0.000E+00
 -2.173  0.000E+00  0.000E+00  0.000E+00  0.000E+00
 -2.163  0.000E+00  0.000E+00  0.000E+00  0.000E+00
 -2.153  0.000E+00  0.000E+00  0.000E+00  0.000E+00
 -2.143  0.000E+00  0.000E+00  0.000E+00  0.000E+00
 -2.133  0.000E+00  0.000E+00  0.000E+00  0.000E+00
 -2.123  0.000E+00  0.000E+00  0.000E+00  0.000E+00
 -2.113  0.000E+00  0.000E+00  0.000E+00  0.000E+00
 -2.103  0.000E+00  0.000E+00  0.000E+00  0.000E+00
 -2.093  0.000E+00  0.000E+00  0.000E+00  0.000E+00
 -2.083  0.000E+00  0.000E+00  0.000E+00  0.000E+00
 -2.073  0.000E+00  0.000E+00  0.000E+00  0.000E+00
 -2.063  0.000E+00  0.000E+00  0.000E+00  0.000E+00
 -2.053  0.000E+00  0.000E+00  0.000E+00  0.000E+00
 -2.043  0.000E+00  0.000E+00  0.000E+00  0.000E+00
 -2.033  0.000E+00  0.000E+00  0.000E+00  0.000E+00
 -2.023  0.000E+00  0.000E+00  0.000E+00  0.000E+00
 -2.013  0.000E+00  0.000E+00  0.000E+00  0.000E+00
 -2.003  0.000E+00  0.000E+00  0.000E+00  0.000E+00
 -1.993  0.000E+00  0.000E+00  0.000E+00  0.000E+00
 -1.983  0.000E+00  0.000E+00  0.000E+00  0.000E+00
 -1.973  0.000E+00  0.000E+00  0.000E+00  0.000E+00
 -1.963  0.000E+00  0.000E+00  0.000E+00  0.000E+00
 -1.953  0.000E+00  0.000E+00  0.000E+00  0.000E+00
 -1.943  0.000E+00  0.000E+00  0.000E+00  0.000E+00
 -1.933  0.000E+00  0.000E+00  0.000E+00  0.000E+00
 -1.923  0.000E+00  0.000E+00  0.000E+00  0.000E+00
 -1.913  0.000E+00  0.000E+00  0.000E+00  0.000E+00
 -1.903  0.000E+00  0.000E+00  0.000E+00  0.000E+00
 -1.893  0.000E+00  0.000E+00  0.000E+00  0.000E+00
 -1.883  0.000E+00  0.000E+00  0.000E+00  0.000E+00
 -1.873  0.000E+00  0.000E+00  0.000E+00  0.000E+00
 -1.863  0.000E+00  0.000E+00  0.000E+00  0.000E+00
 -1.853  0.000E+00  0.000E+00  0.000E+00  0.000E+00
 -1.843  0.000E+00  0.000E+00  0.000E+00  0.000E+00
 -1.833  0.000E+00  0.000E+00  0.000E+00  0.000E+00
 -1.823  0.000E+00  0.000E+00  0.000E+00  0.000E+00
 -1.813  0.000E+00  0.000E+00  0.000E+00  0.000E+00
 -1.803  0.000E+00  0.000E+00  0.000E+00  0.000E+00
 -1.793  0.000E+00  0.000E+00  0.000E+00  0.000E+00
 -1.783  0.000E+00  0.000E+00  0.000E+00  0.000E+00
 -1.773  0.000E+00  0.000E+00  0.000E+00  0.000E+00
 -1.763  0.000E+00  0.000E+00  0.000E+00  0.000E+00
 -1.753  0.000E+00  0.000E+00  0.000E+00  0.000E+00
 -1.743  0.000E+00  0.000E+00  0.000E+00  0.000E+00
 -1.733  0.000E+00  0.000E+00  0.000E+00  0.000E+00
 -1.723  0.000E+00  0.000E+00  0.000E+00  0.000E+00
 -1.713  0.000E+00  0.000E+00  0.000E+00  0.000E+00
 -1.703  0.000E+00  0.000E+00  0.000E+00  0.000E+00
 -1.693  0.000E+00  0.000E+00  0.000E+00  0.000E+00
 -1.683  0.000E+00  0.000E+00  0.000E+00  0.000E+00
 -1.673  0.000E+00  0.000E+00  0.000E+00  0.000E+00
 -1.663  0.000E+00  0.000E+00  0.000E+00  0.000E+00
 -1.653  0.000E+00  0.000E+00  0.000E+00  0.000E+00
 -1.643  0.000E+00  0.000E+00  0.000E+00  0.000E+00
 -1.633  0.000E+00  0.000E+00  0.000E+00  0.000E+00
 -1.623  0.000E+00  0.000E+00  0.000E+00  0.000E+00
 -1.613  0.000E+00  0.000E+00  0.000E+00  0.000E+00
 -1.603  0.000E+00  0.000E+00  0.000E+00  0.000E+00
 -1.593  0.000E+00  0.000E+00  0.000E+00  0.000E+00
 -1.583  0.000E+00  0.000E+00  0.000E+00  0.000E+00
 -1.573  0.000E+00  0.000E+00  0.000E+00  0.000E+00
 -1.563  0.000E+00  0.000E+00  0.000E+00  0.000E+00
 -1.553  0.000E+00  0.000E+00  0.000E+00  0.000E+00
 -1.543  0.000E+00  0.000E+00  0.000E+00  0.000E+00
 -1.533  0.000E+00  0.000E+00  0.000E+00  0.000E+00
 -1.523  0.000E+00  0.000E+00  0.000E+00  0.000E+00
 -1.513  0.000E+00  0.000E+00  0.000E+00  0.000E+00
 -1.503  0.000E+00  0.000E+00  0.000E+00  0.000E+00
 -1.493  0.000E+00  0.000E+00  0.000E+00  0.000E+00
 -1.483  0.000E+00  0.000E+00  0.000E+00  0.000E+00
 -1.473  0.000E+00  0.000E+00  0.000E+00  0.000E+00
 -1.463  0.000E+00  0.000E+00  0.000E+00  0.000E+00
 -1.453  0.000E+00  0.000E+00  0.000E+00  0.000E+00
 -1.443  0.000E+00  0.000E+00  0.000E+00  0.000E+00
 -1.433  0.000E+00  0.000E+00  0.000E+00  0.000E+00
 -1.423  0.000E+00  0.000E+00  0.000E+00  0.000E+00
 -1.413  0.000E+00  0.000E+00  0.000E+00  0.000E+00
 -1.403  0.000E+00  0.000E+00  0.000E+00  0.000E+00
 -1.393  0.000E+00  0.000E+00  0.000E+00  0.000E+00
 -1.383  0.000E+00  0.000E+00  0.000E+00  0.000E+00
 -1.373  0.000E+00  0.000E+00  0.000E+00  0.000E+00
 -1.363  0.000E+00  0.000E+00  0.000E+00  0.000E+00
 -1.353  0.000E+00  0.000E+00  0.000E+00  0.000E+00
 -1.343  0.000E+00  0.000E+00  0.000E+00  0.000E+00
 -1.333  0.155E-13  0.517E-14  0.517E-14  0.517E-14
 -1.323  0.324E-13  0.108E-13  0.108E-13  0.108E-13
 -1.313  0.117E-12  0.391E-13  0.391E-13  0.391E-13
 -1.303  0.243E-12  0.810E-13  0.810E-13  0.810E-13
 -1.293  0.498E-12  0.166E-12  0.166E-12  0.166E-12
 -1.283  0.109E-11  0.365E-12  0.365E-12  0.365E-12
 -1.273  0.229E-11  0.762E-12  0.762E-12  0.762E-12
 -1.263  0.461E-11  0.154E-11  0.154E-11  0.154E-11
 -1.253  0.910E-11  0.303E-11  0.303E-11  0.303E-11
 -1.243  0.178E-10  0.593E-11  0.593E-11  0.593E-11
 -1.233  0.344E-10  0.115E-10  0.115E-10  0.115E-10
 -1.223  0.660E-10  0.220E-10  0.220E-10  0.220E-10
 -1.213  0.125E-09  0.417E-10  0.417E-10  0.417E-10
 -1.203  0.235E-09  0.783E-10  0.783E-10  0.783E-10
 -1.193  0.436E-09  0.145E-09  0.145E-09  0.145E-09
 -1.183  0.802E-09  0.267E-09  0.267E-09  0.267E-09
 -1.173  0.146E-08  0.487E-09  0.487E-09  0.487E-09
 -1.163  0.263E-08  0.876E-09  0.876E-09  0.876E-09
 -1.153  0.469E-08  0.156E-08  0.156E-08  0.156E-08
 -1.143  0.827E-08  0.276E-08  0.276E-08  0.276E-08
 -1.133  0.144E-07  0.481E-08  0.481E-08  0.481E-08
 -1.123  0.250E-07  0.832E-08  0.832E-08  0.832E-08
 -1.113  0.427E-07  0.142E-07  0.142E-07  0.142E-07
 -1.103  0.724E-07  0.241E-07  0.241E-07  0.241E-07
 -1.093  0.121E-06  0.405E-07  0.405E-07  0.405E-07
 -1.083  0.201E-06  0.672E-07  0.672E-07  0.672E-07
 -1.073  0.331E-06  0.110E-06  0.110E-06  0.110E-06
 -1.063  0.539E-06  0.180E-06  0.180E-06  0.180E-06
 -1.053  0.867E-06  0.289E-06  0.289E-06  0.289E-06
 -1.043  0.138E-05  0.461E-06  0.461E-06  0.461E-06
 -1.033  0.218E-05  0.728E-06  0.728E-06  0.728E-06
 -1.023  0.341E-05  0.114E-05  0.114E-05  0.114E-05
 -1.013  0.528E-05  0.176E-05  0.176E-05  0.176E-05
 -1.003  0.808E-05  0.269E-05  0.269E-05  0.269E-05
 -0.993  0.123E-04  0.409E-05  0.409E-05  0.409E-05
 -0.983  0.184E-04  0.614E-05  0.614E-05  0.614E-05
 -0.973  0.274E-04  0.912E-05  0.912E-05  0.912E-05
 -0.963  0.403E-04  0.134E-04  0.134E-04  0.134E-04
 -0.953  0.588E-04  0.196E-04  0.196E-04  0.196E-04
 -0.943  0.848E-04  0.283E-04  0.283E-04  0.283E-04
 -0.933  0.121E-03  0.404E-04  0.404E-04  0.404E-04
 -0.923  0.172E-03  0.572E-04  0.572E-04  0.572E-04
 -0.913  0.241E-03  0.802E-04  0.802E-04  0.802E-04
 -0.903  0.334E-03  0.111E-03  0.111E-03  0.111E-03
 -0.893  0.460E-03  0.153E-03  0.153E-03  0.153E-03
 -0.883  0.627E-03  0.209E-03  0.209E-03  0.209E-03
 -0.873  0.846E-03  0.282E-03  0.282E-03  0.282E-03
 -0.863  0.113E-02  0.377E-03  0.377E-03  0.377E-03
 -0.853  0.150E-02  0.500E-03  0.500E-03  0.500E-03
 -0.843  0.197E-02  0.656E-03  0.656E-03  0.656E-03
 -0.833  0.256E-02  0.853E-03  0.853E-03  0.853E-03
 -0.823  0.330E-02  0.110E-02  0.110E-02  0.110E-02
 -0.813  0.422E-02  0.141E-02  0.141E-02  0.141E-02
 -0.803  0.534E-02  0.178E-02  0.178E-02  0.178E-02
 -0.793  0.670E-02  0.223E-02  0.223E-02  0.223E-02
 -0.783  0.834E-02  0.278E-02  0.278E-02  0.278E-02
 -0.773  0.103E-01  0.343E-02  0.343E-02  0.343E-02
 -0.763  0.126E-01  0.420E-02  0.420E-02  0.420E-02
 -0.753  0.153E-01  0.510E-02  0.510E-02  0.510E-02
 -0.743  0.184E-01  0.614E-02  0.614E-02  0.614E-02
 -0.733  0.220E-01  0.734E-02  0.734E-02  0.734E-02
 -0.723  0.261E-01  0.870E-02  0.870E-02  0.870E-02
 -0.713  0.307E-01  0.102E-01  0.102E-01  0.102E-01
 -0.703  0.359E-01  0.120E-01  0.120E-01  0.120E-01
 -0.693  0.416E-01  0.139E-01  0.139E-01  0.139E-01
 -0.683  0.480E-01  0.160E-01  0.160E-01  0.160E-01
 -0.673  0.549E-01  0.183E-01  0.183E-01  0.183E-01
 -0.663  0.624E-01  0.208E-01  0.208E-01  0.208E-01
 -0.653  0.706E-01  0.235E-01  0.235E-01  0.235E-01
 -0.643  0.793E-01  0.264E-01  0.264E-01  0.264E-01
 -0.633  0.886E-01  0.295E-01  0.295E-01  0.295E-01
 -0.623  0.986E-01  0.329E-01  0.329E-01  0.329E-01
 -0.613  0.109E+00  0.364E-01  0.364E-01  0.364E-01
 -0.603  0.120E+00  0.400E-01  0.400E-01  0.400E-01
 -0.593  0.132E+00  0.439E-01  0.439E-01  0.439E-01
 -0.583  0.144E+00  0.480E-01  0.480E-01  0.480E-01
 -0.573  0.157E+00  0.522E-01  0.522E-01  0.522E-01
 -0.563  0.170E+00  0.566E-01  0.566E-01  0.566E-01
 -0.553  0.184E+00  0.613E-01  0.613E-01  0.613E-01
 -0.543  0.198E+00  0.661E-01  0.661E-01  0.661E-01
 -0.533  0.213E+00  0.711E-01  0.711E-01  0.711E-01
 -0.523  0.229E+00  0.763E-01  0.763E-01  0.763E-01
 -0.513  0.245E+00  0.817E-01  0.817E-01  0.817E-01
 -0.503  0.262E+00  0.873E-01  0.873E-01  0.873E-01
 -0.493  0.280E+00  0.932E-01  0.932E-01  0.932E-01
 -0.483  0.298E+00  0.994E-01  0.994E-01  0.994E-01
 -0.473  0.317E+00  0.106E+00  0.106E+00  0.106E+00
 -0.463  0.337E+00  0.112E+00  0.112E+00  0.112E+00
 -0.453  0.358E+00  0.119E+00  0.119E+00  0.119E+00
 -0.443  0.379E+00  0.126E+00  0.126E+00  0.126E+00
 -0.433  0.402E+00  0.134E+00  0.134E+00  0.134E+00
 -0.423  0.425E+00  0.142E+00  0.142E+00  0.142E+00
 -0.413  0.450E+00  0.150E+00  0.150E+00  0.150E+00
 -0.403  0.475E+00  0.158E+00  0.158E+00  0.158E+00
 -0.393  0.502E+00  0.167E+00  0.167E+00  0.167E+00
 -0.383  0.529E+00  0.176E+00  0.176E+00  0.176E+00
 -0.373  0.558E+00  0.186E+00  0.186E+00  0.186E+00
 -0.363  0.588E+00  0.196E+00  0.196E+00  0.196E+00
 -0.353  0.619E+00  0.206E+00  0.206E+00  0.206E+00
 -0.343  0.652E+00  0.217E+00  0.217E+00  0.217E+00
 -0.333  0.686E+00  0.229E+00  0.229E+00  0.229E+00
 -0.323  0.721E+00  0.240E+00  0.240E+00  0.240E+00
 -0.313  0.758E+00  0.253E+00  0.253E+00  0.253E+00
 -0.303  0.796E+00  0.265E+00  0.265E+00  0.265E+00
 -0.293  0.835E+00  0.278E+00  0.278E+00  0.278E+00
 -0.283  0.875E+00  0.292E+00  0.292E+00  0.292E+00
 -0.273  0.916E+00  0.305E+00  0.305E+00  0.305E+00
 -0.263  0.958E+00  0.319E+00  0.319E+00  0.319E+00
 -0.253  0.100E+01  0.333E+00  0.333E+00  0.333E+00
 -0.243  0.104E+01  0.347E+00  0.347E+00  0.347E+00
 -0.233  0.108E+01  0.361E+00  0.361E+00  0.361E+00
 -0.223  0.112E+01  0.375E+00  0.375E+00  0.375E+00
 -0.213  0.116E+01  0.388E+00  0.388E+00  0.388E+00
 -0.203  0.120E+01  0.400E+00  0.400E+00  0.400E+00
 -0.193  0.124E+01  0.412E+00  0.412E+00  0.412E+00
 -0.183  0.127E+01  0.423E+00  0.423E+00  0.423E+00
 -0.173  0.130E+01  0.432E+00  0.432E+00  0.432E+00
 -0.163  0.132E+01  0.440E+00  0.440E+00  0.440E+00
 -0.153  0.134E+01  0.446E+00  0.446E+00  0.446E+00
 -0.143  0.135E+01  0.451E+00  0.451E+00  0.451E+00
 -0.133  0.136E+01  0.454E+00  0.454E+00  0.454E+00
 -0.123  0.137E+01  0.456E+00  0.456E+00  0.456E+00
 -0.113  0.137E+01  0.455E+00  0.455E+00  0.455E+00
 -0.103  0.136E+01  0.453E+00  0.453E+00  0.453E+00
 -0.093  0.135E+01  0.449E+00  0.449E+00  0.449E+00
 -0.083  0.133E+01  0.443E+00  0.443E+00  0.443E+00
 -0.073  0.131E+01  0.436E+00  0.436E+00  0.436E+00
 -0.063  0.128E+01  0.427E+00  0.427E+00  0.427E+00
 -0.053  0.125E+01  0.417E+00  0.417E+00  0.417E+00
 -0.043  0.122E+01  0.406E+00  0.406E+00  0.406E+00
 -0.033  0.118E+01  0.394E+00  0.394E+00  0.394E+00
 -0.023  0.114E+01  0.381E+00  0.381E+00  0.381E+00
 -0.013  0.110E+01  0.368E+00  0.368E+00  0.368E+00
 -0.003  0.106E+01  0.354E+00  0.354E+00  0.354E+00
  0.007  0.102E+01  0.341E+00  0.341E+00  0.341E+00
  0.017  0.981E+00  0.327E+00  0.327E+00  0.327E+00
  0.027  0.941E+00  0.314E+00  0.314E+00  0.314E+00
  0.037  0.902E+00  0.301E+00  0.301E+00  0.301E+00
  0.047  0.865E+00  0.288E+00  0.288E+00  0.288E+00
  0.057  0.829E+00  0.276E+00  0.276E+00  0.276E+00
  0.067  0.795E+00  0.265E+00  0.265E+00  0.265E+00
  0.077  0.764E+00  0.255E+00  0.255E+00  0.255E+00
  0.087  0.734E+00  0.245E+00  0.245E+00  0.245E+00
  0.097  0.706E+00  0.235E+00  0.235E+00  0.235E+00
  0.107  0.680E+00  0.227E+00  0.227E+00  0.227E+00
  0.117  0.657E+00  0.219E+00  0.219E+00  0.219E+00
  0.127  0.634E+00  0.211E+00  0.211E+00  0.211E+00
  0.137  0.614E+00  0.205E+00  0.205E+00  0.205E+00
  0.147  0.595E+00  0.198E+00  0.198E+00  0.198E+00
  0.157  0.578E+00  0.193E+00  0.193E+00  0.193E+00
  0.167  0.562E+00  0.187E+00  0.187E+00  0.187E+00
  0.177  0.546E+00  0.182E+00  0.182E+00  0.182E+00
  0.187  0.532E+00  0.177E+00  0.177E+00  0.177E+00
  0.197  0.519E+00  0.173E+00  0.173E+00  0.173E+00
  0.207  0.506E+00  0.169E+00  0.169E+00  0.169E+00
  0.217  0.494E+00  0.165E+00  0.165E+00  0.165E+00
  0.227  0.483E+00  0.161E+00  0.161E+00  0.161E+00
  0.237  0.472E+00  0.157E+00  0.157E+00  0.157E+00
  0.247  0.462E+00  0.154E+00  0.154E+00  0.154E+00
  0.257  0.453E+00  0.151E+00  0.151E+00  0.151E+00
  0.267  0.444E+00  0.148E+00  0.148E+00  0.148E+00
  0.277  0.435E+00  0.145E+00  0.145E+00  0.145E+00
  0.287  0.428E+00  0.143E+00  0.143E+00  0.143E+00
  0.297  0.420E+00  0.140E+00  0.140E+00  0.140E+00
  0.307  0.414E+00  0.138E+00  0.138E+00  0.138E+00
  0.317  0.407E+00  0.136E+00  0.136E+00  0.136E+00
  0.327  0.401E+00  0.134E+00  0.134E+00  0.134E+00
  0.337  0.396E+00  0.132E+00  0.132E+00  0.132E+00
  0.347  0.390E+00  0.130E+00  0.130E+00  0.130E+00
  0.357  0.385E+00  0.128E+00  0.128E+00  0.128E+00
  0.367  0.380E+00  0.127E+00  0.127E+00  0.127E+00
  0.377  0.375E+00  0.125E+00  0.125E+00  0.125E+00
  0.387  0.370E+00  0.123E+00  0.123E+00  0.123E+00
  0.397  0.365E+00  0.122E+00  0.122E+00  0.122E+00
  0.407  0.360E+00  0.120E+00  0.120E+00  0.120E+00
  0.417  0.355E+00  0.118E+00  0.118E+00  0.118E+00
  0.427  0.350E+00  0.117E+00  0.117E+00  0.117E+00
  0.437  0.345E+00  0.115E+00  0.115E+00  0.115E+00
  0.447  0.340E+00  0.113E+00  0.113E+00  0.113E+00
  0.457  0.335E+00  0.112E+00  0.112E+00  0.112E+00
  0.467  0.330E+00  0.110E+00  0.110E+00  0.110E+00
  0.477  0.325E+00  0.108E+00  0.108E+00  0.108E+00
  0.487  0.321E+00  0.107E+00  0.107E+00  0.107E+00
  0.497  0.316E+00  0.105E+00  0.105E+00  0.105E+00
  0.507  0.312E+00  0.104E+00  0.104E+00  0.104E+00
  0.517  0.307E+00  0.102E+00  0.102E+00  0.102E+00
  0.527  0.304E+00  0.101E+00  0.101E+00  0.101E+00
  0.537  0.300E+00  0.999E-01  0.999E-01  0.999E-01
  0.547  0.296E+00  0.988E-01  0.988E-01  0.988E-01
  0.557  0.293E+00  0.978E-01  0.978E-01  0.978E-01
  0.567  0.290E+00  0.968E-01  0.968E-01  0.968E-01
  0.577  0.288E+00  0.959E-01  0.959E-01  0.959E-01
  0.587  0.285E+00  0.951E-01  0.951E-01  0.951E-01
  0.597  0.283E+00  0.944E-01  0.944E-01  0.944E-01
  0.607  0.281E+00  0.937E-01  0.937E-01  0.937E-01
  0.617  0.279E+00  0.931E-01  0.931E-01  0.931E-01
  0.627  0.277E+00  0.925E-01  0.925E-01  0.925E-01
  0.637  0.276E+00  0.919E-01  0.919E-01  0.919E-01
  0.647  0.274E+00  0.913E-01  0.913E-01  0.913E-01
  0.657  0.272E+00  0.907E-01  0.907E-01  0.907E-01
  0.667  0.270E+00  0.900E-01  0.900E-01  0.900E-01
  0.677  0.268E+00  0.893E-01  0.893E-01  0.893E-01
  0.687  0.266E+00  0.885E-01  0.885E-01  0.885E-01
  0.697  0.263E+00  0.876E-01  0.876E-01  0.876E-01
  0.707  0.260E+00  0.866E-01  0.866E-01  0.866E-01
  0.717  0.257E+00  0.855E-01  0.855E-01  0.855E-01
  0.727  0.253E+00  0.844E-01  0.844E-01  0.844E-01
  0.737  0.249E+00  0.831E-01  0.831E-01  0.831E-01
  0.747  0.246E+00  0.818E-01  0.818E-01  0.818E-01
  0.757  0.242E+00  0.805E-01  0.805E-01  0.805E-01
  0.767  0.238E+00  0.793E-01  0.793E-01  0.793E-01
  0.777  0.234E+00  0.780E-01  0.780E-01  0.780E-01
  0.787  0.231E+00  0.769E-01  0.769E-01  0.769E-01
  0.797  0.227E+00  0.758E-01  0.758E-01  0.758E-01
  0.807  0.225E+00  0.749E-01  0.749E-01  0.749E-01
  0.817  0.222E+00  0.741E-01  0.741E-01  0.741E-01
  0.827  0.220E+00  0.734E-01  0.734E-01  0.734E-01
  0.837  0.219E+00  0.729E-01  0.729E-01  0.729E-01
  0.847  0.217E+00  0.725E-01  0.725E-01  0.725E-01
  0.857  0.216E+00  0.722E-01  0.722E-01  0.722E-01
  0.867  0.216E+00  0.719E-01  0.719E-01  0.719E-01
  0.877  0.215E+00  0.718E-01  0.718E-01  0.718E-01
  0.887  0.215E+00  0.716E-01  0.716E-01  0.716E-01
  0.897  0.215E+00  0.715E-01  0.715E-01  0.715E-01
  0.907  0.214E+00  0.713E-01  0.713E-01  0.713E-01
  0.917  0.213E+00  0.711E-01  0.711E-01  0.711E-01
  0.927  0.213E+00  0.709E-01  0.709E-01  0.709E-01
  0.937  0.212E+00  0.705E-01  0.705E-01  0.705E-01
  0.947  0.210E+00  0.701E-01  0.701E-01  0.701E-01
  0.957  0.209E+00  0.697E-01  0.697E-01  0.697E-01
  0.967  0.208E+00  0.692E-01  0.692E-01  0.692E-01
  0.977  0.206E+00  0.686E-01  0.686E-01  0.686E-01
  0.987  0.204E+00  0.680E-01  0.680E-01  0.680E-01
  0.997  0.202E+00  0.675E-01  0.675E-01  0.675E-01
  1.007  0.201E+00  0.669E-01  0.669E-01  0.669E-01
  1.017  0.199E+00  0.662E-01  0.662E-01  0.662E-01
  1.027  0.197E+00  0.657E-01  0.657E-01  0.657E-01
  1.037  0.195E+00  0.651E-01  0.651E-01  0.651E-01
  1.047  0.193E+00  0.645E-01  0.645E-01  0.645E-01
  1.057  0.192E+00  0.639E-01  0.639E-01  0.639E-01
  1.067  0.190E+00  0.633E-01  0.633E-01  0.633E-01
  1.077  0.188E+00  0.627E-01  0.627E-01  0.627E-01
  1.087  0.186E+00  0.620E-01  0.620E-01  0.620E-01
  1.097  0.184E+00  0.614E-01  0.614E-01  0.614E-01
  1.107  0.182E+00  0.607E-01  0.607E-01  0.607E-01
  1.117  0.180E+00  0.600E-01  0.600E-01  0.600E-01
  1.127  0.178E+00  0.594E-01  0.594E-01  0.594E-01
  1.137  0.176E+00  0.587E-01  0.587E-01  0.587E-01
  1.147  0.175E+00  0.582E-01  0.582E-01  0.582E-01
  1.157  0.173E+00  0.577E-01  0.577E-01  0.577E-01
  1.167  0.172E+00  0.574E-01  0.574E-01  0.574E-01
  1.177  0.172E+00  0.573E-01  0.573E-01  0.573E-01
  1.187  0.172E+00  0.573E-01  0.573E-01  0.573E-01
  1.197  0.173E+00  0.576E-01  0.576E-01  0.576E-01
  1.207  0.174E+00  0.581E-01  0.581E-01  0.581E-01
  1.217  0.177E+00  0.590E-01  0.590E-01  0.590E-01
  1.227  0.180E+00  0.601E-01  0.601E-01  0.601E-01
  1.237  0.185E+00  0.616E-01  0.616E-01  0.616E-01
  1.247  0.190E+00  0.634E-01  0.634E-01  0.634E-01
  1.257  0.196E+00  0.655E-01  0.655E-01  0.655E-01
  1.267  0.204E+00  0.679E-01  0.679E-01  0.679E-01
  1.277  0.212E+00  0.707E-01  0.707E-01  0.707E-01
  1.287  0.221E+00  0.737E-01  0.737E-01  0.737E-01
  1.297  0.231E+00  0.770E-01  0.770E-01  0.770E-01
  1.307  0.242E+00  0.807E-01  0.807E-01  0.807E-01
  1.317  0.254E+00  0.845E-01  0.845E-01  0.845E-01
  1.327  0.266E+00  0.886E-01  0.886E-01  0.886E-01
  1.337  0.279E+00  0.930E-01  0.930E-01  0.930E-01
  1.347  0.292E+00  0.975E-01  0.975E-01  0.975E-01
  1.357  0.307E+00  0.102E+00  0.102E+00  0.102E+00
  1.367  0.321E+00  0.107E+00  0.107E+00  0.107E+00
  1.377  0.337E+00  0.112E+00  0.112E+00  0.112E+00
  1.387  0.352E+00  0.117E+00  0.117E+00  0.117E+00
  1.397  0.368E+00  0.123E+00  0.123E+00  0.123E+00
  1.407  0.385E+00  0.128E+00  0.128E+00  0.128E+00
  1.417  0.401E+00  0.134E+00  0.134E+00  0.134E+00
  1.427  0.418E+00  0.139E+00  0.139E+00  0.139E+00
  1.437  0.436E+00  0.145E+00  0.145E+00  0.145E+00
  1.447  0.453E+00  0.151E+00  0.151E+00  0.151E+00
  1.457  0.471E+00  0.157E+00  0.157E+00  0.157E+00
  1.467  0.489E+00  0.163E+00  0.163E+00  0.163E+00
  1.477  0.506E+00  0.169E+00  0.169E+00  0.169E+00
  1.487  0.524E+00  0.175E+00  0.175E+00  0.175E+00
  1.497  0.541E+00  0.180E+00  0.180E+00  0.180E+00
  1.507  0.559E+00  0.186E+00  0.186E+00  0.186E+00
  1.517  0.575E+00  0.192E+00  0.192E+00  0.192E+00
  1.527  0.592E+00  0.197E+00  0.197E+00  0.197E+00
  1.537  0.608E+00  0.203E+00  0.203E+00  0.203E+00
  1.547  0.623E+00  0.208E+00  0.208E+00  0.208E+00
  1.557  0.638E+00  0.213E+00  0.213E+00  0.213E+00
  1.567  0.651E+00  0.217E+00  0.217E+00  0.217E+00
  1.577  0.664E+00  0.221E+00  0.221E+00  0.221E+00
  1.587  0.675E+00  0.225E+00  0.225E+00  0.225E+00
  1.597  0.686E+00  0.229E+00  0.229E+00  0.229E+00
  1.607  0.695E+00  0.232E+00  0.232E+00  0.232E+00
  1.617  0.704E+00  0.235E+00  0.235E+00  0.235E+00
  1.627  0.711E+00  0.237E+00  0.237E+00  0.237E+00
  1.637  0.717E+00  0.239E+00  0.239E+00  0.239E+00
  1.647  0.722E+00  0.241E+00  0.241E+00  0.241E+00
  1.657  0.726E+00  0.242E+00  0.242E+00  0.242E+00
  1.667  0.729E+00  0.243E+00  0.243E+00  0.243E+00
  1.677  0.731E+00  0.244E+00  0.244E+00  0.244E+00
  1.687  0.733E+00  0.244E+00  0.244E+00  0.244E+00
  1.697  0.734E+00  0.245E+00  0.245E+00  0.245E+00
  1.707  0.735E+00  0.245E+00  0.245E+00  0.245E+00
  1.717  0.735E+00  0.245E+00  0.245E+00  0.245E+00
  1.727  0.735E+00  0.245E+00  0.245E+00  0.245E+00
  1.737  0.735E+00  0.245E+00  0.245E+00  0.245E+00
  1.747  0.734E+00  0.245E+00  0.245E+00  0.245E+00
  1.757  0.734E+00  0.245E+00  0.245E+00  0.245E+00
  1.767  0.733E+00  0.244E+00  0.244E+00  0.244E+00
  1.777  0.732E+00  0.244E+00  0.244E+00  0.244E+00
  1.787  0.730E+00  0.243E+00  0.243E+00  0.243E+00
  1.797  0.729E+00  0.243E+00  0.243E+00  0.243E+00
  1.807  0.727E+00  0.242E+00  0.242E+00  0.242E+00
  1.817  0.724E+00  0.241E+00  0.241E+00  0.241E+00
  1.827  0.721E+00  0.240E+00  0.240E+00  0.240E+00
  1.837  0.718E+00  0.239E+00  0.239E+00  0.239E+00
  1.847  0.714E+00  0.238E+00  0.238E+00  0.238E+00
  1.857  0.709E+00  0.236E+00  0.236E+00  0.236E+00
  1.867  0.704E+00  0.235E+00  0.235E+00  0.235E+00
  1.877  0.699E+00  0.233E+00  0.233E+00  0.233E+00
  1.887  0.693E+00  0.231E+00  0.231E+00  0.231E+00
  1.897  0.688E+00  0.229E+00  0.229E+00  0.229E+00
  1.907  0.682E+00  0.227E+00  0.227E+00  0.227E+00
  1.917  0.677E+00  0.226E+00  0.226E+00  0.226E+00
  1.927  0.671E+00  0.224E+00  0.224E+00  0.224E+00
  1.937  0.666E+00  0.222E+00  0.222E+00  0.222E+00
  1.947  0.662E+00  0.221E+00  0.221E+00  0.221E+00
  1.957  0.659E+00  0.220E+00  0.220E+00  0.220E+00
  1.967  0.656E+00  0.219E+00  0.219E+00  0.219E+00
  1.977  0.654E+00  0.218E+00  0.218E+00  0.218E+00
  1.987  0.653E+00  0.218E+00  0.218E+00  0.218E+00
  1.997  0.653E+00  0.218E+00  0.218E+00  0.218E+00
  2.007  0.654E+00  0.218E+00  0.218E+00  0.218E+00
  2.017  0.656E+00  0.219E+00  0.219E+00  0.219E+00
  2.027  0.659E+00  0.220E+00  0.220E+00  0.220E+00
  2.037  0.663E+00  0.221E+00  0.221E+00  0.221E+00
  2.047  0.668E+00  0.223E+00  0.223E+00  0.223E+00
  2.057  0.673E+00  0.224E+00  0.224E+00  0.224E+00
  2.067  0.679E+00  0.226E+00  0.226E+00  0.226E+00
  2.077  0.684E+00  0.228E+00  0.228E+00  0.228E+00
  2.087  0.690E+00  0.230E+00  0.230E+00  0.230E+00
  2.097  0.696E+00  0.232E+00  0.232E+00  0.232E+00
  2.107  0.702E+00  0.234E+00  0.234E+00  0.234E+00
  2.117  0.707E+00  0.236E+00  0.236E+00  0.236E+00
  2.127  0.712E+00  0.237E+00  0.237E+00  0.237E+00
  2.137  0.716E+00  0.239E+00  0.239E+00  0.239E+00
  2.147  0.719E+00  0.240E+00  0.240E+00  0.240E+00
  2.157  0.722E+00  0.241E+00  0.241E+00  0.241E+00
  2.167  0.724E+00  0.241E+00  0.241E+00  0.241E+00
  2.177  0.726E+00  0.242E+00  0.242E+00  0.242E+00
  2.187  0.726E+00  0.242E+00  0.242E+00  0.242E+00
  2.197  0.727E+00  0.242E+00  0.242E+00  0.242E+00
  2.207  0.727E+00  0.242E+00  0.242E+00  0.242E+00
  2.217  0.726E+00  0.242E+00  0.242E+00  0.242E+00
  2.227  0.726E+00  0.242E+00  0.242E+00  0.242E+00
  2.237  0.726E+00  0.242E+00  0.242E+00  0.242E+00
  2.247  0.726E+00  0.242E+00  0.242E+00  0.242E+00
  2.257  0.727E+00  0.242E+00  0.242E+00  0.242E+00
  2.267  0.729E+00  0.243E+00  0.243E+00  0.243E+00
  2.277  0.731E+00  0.244E+00  0.244E+00  0.244E+00
  2.287  0.735E+00  0.245E+00  0.245E+00  0.245E+00
  2.297  0.739E+00  0.246E+00  0.246E+00  0.246E+00
  2.307  0.744E+00  0.248E+00  0.248E+00  0.248E+00
  2.317  0.751E+00  0.250E+00  0.250E+00  0.250E+00
  2.327  0.758E+00  0.253E+00  0.253E+00  0.253E+00
  2.337  0.766E+00  0.255E+00  0.255E+00  0.255E+00
  2.347  0.774E+00  0.258E+00  0.258E+00  0.258E+00
  2.357  0.783E+00  0.261E+00  0.261E+00  0.261E+00
  2.367  0.792E+00  0.264E+00  0.264E+00  0.264E+00
  2.377  0.801E+00  0.267E+00  0.267E+00  0.267E+00
  2.387  0.810E+00  0.270E+00  0.270E+00  0.270E+00
  2.397  0.819E+00  0.273E+00  0.273E+00  0.273E+00
  2.407  0.827E+00  0.276E+00  0.276E+00  0.276E+00
  2.417  0.834E+00  0.278E+00  0.278E+00  0.278E+00
  2.427  0.840E+00  0.280E+00  0.280E+00  0.280E+00
  2.437  0.846E+00  0.282E+00  0.282E+00  0.282E+00
  2.447  0.851E+00  0.284E+00  0.284E+00  0.284E+00
  2.457  0.854E+00  0.285E+00  0.285E+00  0.285E+00
  2.467  0.857E+00  0.286E+00  0.286E+00  0.286E+00
  2.477  0.860E+00  0.287E+00  0.287E+00  0.287E+00
  2.487  0.861E+00  0.287E+00  0.287E+00  0.287E+00
  2.497  0.863E+00  0.288E+00  0.288E+00  0.288E+00
  2.507  0.865E+00  0.288E+00  0.288E+00  0.288E+00
  2.517  0.867E+00  0.289E+00  0.289E+00  0.289E+00
  2.527  0.869E+00  0.290E+00  0.290E+00  0.290E+00
  2.537  0.872E+00  0.291E+00  0.291E+00  0.291E+00
  2.547  0.877E+00  0.292E+00  0.292E+00  0.292E+00
  2.557  0.883E+00  0.294E+00  0.294E+00  0.294E+00
  2.567  0.890E+00  0.297E+00  0.297E+00  0.297E+00
  2.577  0.899E+00  0.300E+00  0.300E+00  0.300E+00
  2.587  0.910E+00  0.303E+00  0.303E+00  0.303E+00
  2.597  0.922E+00  0.307E+00  0.307E+00  0.307E+00
  2.607  0.937E+00  0.312E+00  0.312E+00  0.312E+00
  2.617  0.953E+00  0.318E+00  0.318E+00  0.318E+00
  2.627  0.970E+00  0.323E+00  0.323E+00  0.323E+00
  2.637  0.989E+00  0.330E+00  0.330E+00  0.330E+00
  2.647  0.101E+01  0.336E+00  0.336E+00  0.336E+00
  2.657  0.103E+01  0.343E+00  0.343E+00  0.343E+00
  2.667  0.105E+01  0.349E+00  0.349E+00  0.349E+00
  2.677  0.107E+01  0.356E+00  0.356E+00  0.356E+00
  2.687  0.109E+01  0.363E+00  0.363E+00  0.363E+00
  2.697  0.111E+01  0.369E+00  0.369E+00  0.369E+00
  2.707  0.112E+01  0.374E+00  0.374E+00  0.374E+00
  2.717  0.114E+01  0.380E+00  0.380E+00  0.380E+00
  2.727  0.115E+01  0.384E+00  0.384E+00  0.384E+00
  2.737  0.117E+01  0.388E+00  0.388E+00  0.388E+00
  2.747  0.118E+01  0.392E+00  0.392E+00  0.392E+00
  2.757  0.118E+01  0.394E+00  0.394E+00  0.394E+00
  2.767  0.119E+01  0.396E+00  0.396E+00  0.396E+00
  2.777  0.119E+01  0.398E+00  0.398E+00  0.398E+00
  2.787  0.120E+01  0.399E+00  0.399E+00  0.399E+00
  2.797  0.120E+01  0.399E+00  0.399E+00  0.399E+00
  2.807  0.120E+01  0.399E+00  0.399E+00  0.399E+00
  2.817  0.119E+01  0.398E+00  0.398E+00  0.398E+00
  2.827  0.119E+01  0.397E+00  0.397E+00  0.397E+00
  2.837  0.119E+01  0.396E+00  0.396E+00  0.396E+00
  2.847  0.119E+01  0.395E+00  0.395E+00  0.395E+00
  2.857  0.118E+01  0.394E+00  0.394E+00  0.394E+00
  2.867  0.118E+01  0.393E+00  0.393E+00  0.393E+00
  2.877  0.118E+01  0.392E+00  0.392E+00  0.392E+00
  2.887  0.118E+01  0.392E+00  0.392E+00  0.392E+00
  2.897  0.117E+01  0.391E+00  0.391E+00  0.391E+00
  2.907  0.117E+01  0.391E+00  0.391E+00  0.391E+00
  2.917  0.117E+01  0.391E+00  0.391E+00  0.391E+00
  2.927  0.118E+01  0.392E+00  0.392E+00  0.392E+00
  2.937  0.118E+01  0.392E+00  0.392E+00  0.392E+00
  2.947  0.118E+01  0.393E+00  0.393E+00  0.393E+00
  2.957  0.118E+01  0.394E+00  0.394E+00  0.394E+00
  2.967  0.118E+01  0.394E+00  0.394E+00  0.394E+00
  2.977  0.119E+01  0.395E+00  0.395E+00  0.395E+00
  2.987  0.119E+01  0.396E+00  0.396E+00  0.396E+00
  2.997  0.119E+01  0.396E+00  0.396E+00  0.396E+00
  3.007  0.119E+01  0.396E+00  0.396E+00  0.396E+00
  3.017  0.119E+01  0.396E+00  0.396E+00  0.396E+00
  3.027  0.119E+01  0.396E+00  0.396E+00  0.396E+00
  3.037  0.119E+01  0.396E+00  0.396E+00  0.396E+00
  3.047  0.119E+01  0.395E+00  0.395E+00  0.395E+00
  3.057  0.118E+01  0.395E+00  0.395E+00  0.395E+00
  3.067  0.118E+01  0.394E+00  0.394E+00  0.394E+00
  3.077  0.118E+01  0.394E+00  0.394E+00  0.394E+00
  3.087  0.118E+01  0.393E+00  0.393E+00  0.393E+00
  3.097  0.118E+01  0.393E+00  0.393E+00  0.393E+00
  3.107  0.118E+01  0.393E+00  0.393E+00  0.393E+00
  3.117  0.118E+01  0.394E+00  0.394E+00  0.394E+00
  3.127  0.118E+01  0.394E+00  0.394E+00  0.394E+00
  3.137  0.119E+01  0.395E+00  0.395E+00  0.395E+00
  3.147  0.119E+01  0.397E+00  0.397E+00  0.397E+00
  3.157  0.119E+01  0.398E+00  0.398E+00  0.398E+00
  3.167  0.120E+01  0.400E+00  0.400E+00  0.400E+00
  3.177  0.120E+01  0.401E+00  0.401E+00  0.401E+00
  3.187  0.121E+01  0.403E+00  0.403E+00  0.403E+00
  3.197  0.121E+01  0.405E+00  0.405E+00  0.405E+00
  3.207  0.122E+01  0.406E+00  0.406E+00  0.406E+00
  3.217  0.122E+01  0.408E+00  0.408E+00  0.408E+00
  3.227  0.123E+01  0.409E+00  0.409E+00  0.409E+00
  3.237  0.123E+01  0.410E+00  0.410E+00  0.410E+00
  3.247  0.123E+01  0.410E+00  0.410E+00  0.410E+00
  3.257  0.123E+01  0.410E+00  0.410E+00  0.410E+00
  3.267  0.123E+01  0.409E+00  0.409E+00  0.409E+00
  3.277  0.123E+01  0.409E+00  0.409E+00  0.409E+00
  3.287  0.122E+01  0.408E+00  0.408E+00  0.408E+00
  3.297  0.122E+01  0.407E+00  0.407E+00  0.407E+00
  3.307  0.122E+01  0.405E+00  0.405E+00  0.405E+00
  3.317  0.121E+01  0.403E+00  0.403E+00  0.403E+00
  3.327  0.121E+01  0.402E+00  0.402E+00  0.402E+00
  3.337  0.120E+01  0.400E+00  0.400E+00  0.400E+00
  3.347  0.120E+01  0.398E+00  0.398E+00  0.398E+00
  3.357  0.119E+01  0.397E+00  0.397E+00  0.397E+00
  3.367  0.119E+01  0.395E+00  0.395E+00  0.395E+00
  3.377  0.118E+01  0.394E+00  0.394E+00  0.394E+00
  3.387  0.118E+01  0.393E+00  0.393E+00  0.393E+00
  3.397  0.118E+01  0.392E+00  0.392E+00  0.392E+00
  3.407  0.117E+01  0.391E+00  0.391E+00  0.391E+00
  3.417  0.117E+01  0.390E+00  0.390E+00  0.390E+00
  3.427  0.117E+01  0.390E+00  0.390E+00  0.390E+00
  3.437  0.117E+01  0.390E+00  0.390E+00  0.390E+00
  3.447  0.117E+01  0.389E+00  0.389E+00  0.389E+00
  3.457  0.117E+01  0.390E+00  0.390E+00  0.390E+00
  3.467  0.117E+01  0.390E+00  0.390E+00  0.390E+00
  3.477  0.117E+01  0.390E+00  0.390E+00  0.390E+00
  3.487  0.117E+01  0.391E+00  0.391E+00  0.391E+00
  3.497  0.118E+01  0.392E+00  0.392E+00  0.392E+00
  3.507  0.118E+01  0.393E+00  0.393E+00  0.393E+00
  3.517  0.118E+01  0.394E+00  0.394E+00  0.394E+00
  3.527  0.119E+01  0.395E+00  0.395E+00  0.395E+00
  3.537  0.119E+01  0.397E+00  0.397E+00  0.397E+00
  3.547  0.119E+01  0.398E+00  0.398E+00  0.398E+00
  3.557  0.120E+01  0.400E+00  0.400E+00  0.400E+00
  3.567  0.120E+01  0.401E+00  0.401E+00  0.401E+00
  3.577  0.121E+01  0.403E+00  0.403E+00  0.403E+00
  3.587  0.121E+01  0.405E+00  0.405E+00  0.405E+00
  3.597  0.122E+01  0.406E+00  0.406E+00  0.406E+00
  3.607  0.122E+01  0.408E+00  0.408E+00  0.408E+00
  3.617  0.123E+01  0.409E+00  0.409E+00  0.409E+00
  3.627  0.123E+01  0.410E+00  0.410E+00  0.410E+00
  3.637  0.123E+01  0.411E+00  0.411E+00  0.411E+00
  3.647  0.123E+01  0.411E+00  0.411E+00  0.411E+00
  3.657  0.123E+01  0.411E+00  0.411E+00  0.411E+00
  3.667  0.123E+01  0.411E+00  0.411E+00  0.411E+00
  3.677  0.123E+01  0.411E+00  0.411E+00  0.411E+00
  3.687  0.123E+01  0.410E+00  0.410E+00  0.410E+00
  3.697  0.123E+01  0.409E+00  0.409E+00  0.409E+00
  3.707  0.122E+01  0.408E+00  0.408E+00  0.408E+00
  3.717  0.122E+01  0.407E+00  0.407E+00  0.407E+00
  3.727  0.122E+01  0.406E+00  0.406E+00  0.406E+00
  3.737  0.122E+01  0.405E+00  0.405E+00  0.405E+00
  3.747  0.121E+01  0.404E+00  0.404E+00  0.404E+00
  3.757  0.121E+01  0.404E+00  0.404E+00  0.404E+00
  3.767  0.121E+01  0.403E+00  0.403E+00  0.403E+00
  3.777  0.121E+01  0.403E+00  0.403E+00  0.403E+00
  3.787  0.121E+01  0.402E+00  0.402E+00  0.402E+00
  3.797  0.121E+01  0.402E+00  0.402E+00  0.402E+00
  3.807  0.121E+01  0.403E+00  0.403E+00  0.403E+00
  3.817  0.121E+01  0.403E+00  0.403E+00  0.403E+00
  3.827  0.121E+01  0.403E+00  0.403E+00  0.403E+00
  3.837  0.121E+01  0.403E+00  0.403E+00  0.403E+00
  3.847  0.121E+01  0.404E+00  0.404E+00  0.404E+00
  3.857  0.121E+01  0.404E+00  0.404E+00  0.404E+00
  3.867  0.121E+01  0.404E+00  0.404E+00  0.404E+00
  3.877  0.121E+01  0.404E+00  0.404E+00  0.404E+00
  3.887  0.121E+01  0.403E+00  0.403E+00  0.403E+00
  3.897  0.121E+01  0.403E+00  0.403E+00  0.403E+00
  3.907  0.121E+01  0.402E+00  0.402E+00  0.402E+00
  3.917  0.120E+01  0.400E+00  0.400E+00  0.400E+00
  3.927  0.120E+01  0.399E+00  0.399E+00  0.399E+00
  3.937  0.119E+01  0.397E+00  0.397E+00  0.397E+00
  3.947  0.118E+01  0.394E+00  0.394E+00  0.394E+00
  3.957  0.117E+01  0.391E+00  0.391E+00  0.391E+00
  3.967  0.116E+01  0.388E+00  0.388E+00  0.388E+00
  3.977  0.115E+01  0.384E+00  0.384E+00  0.384E+00
  3.987  0.114E+01  0.380E+00  0.380E+00  0.380E+00
  3.997  0.113E+01  0.376E+00  0.376E+00  0.376E+00
  4.007  0.111E+01  0.371E+00  0.371E+00  0.371E+00
  4.017  0.110E+01  0.366E+00  0.366E+00  0.366E+00
  4.027  0.108E+01  0.360E+00  0.360E+00  0.360E+00
  4.037  0.106E+01  0.355E+00  0.355E+00  0.355E+00
  4.047  0.105E+01  0.349E+00  0.349E+00  0.349E+00
  4.057  0.103E+01  0.343E+00  0.343E+00  0.343E+00
  4.067  0.101E+01  0.338E+00  0.338E+00  0.338E+00
  4.077  0.995E+00  0.332E+00  0.332E+00  0.332E+00
  4.087  0.977E+00  0.326E+00  0.326E+00  0.326E+00
  4.097  0.959E+00  0.320E+00  0.320E+00  0.320E+00
  4.107  0.942E+00  0.314E+00  0.314E+00  0.314E+00
  4.117  0.925E+00  0.308E+00  0.308E+00  0.308E+00
  4.127  0.908E+00  0.303E+00  0.303E+00  0.303E+00
  4.137  0.891E+00  0.297E+00  0.297E+00  0.297E+00
  4.147  0.875E+00  0.292E+00  0.292E+00  0.292E+00
  4.157  0.859E+00  0.286E+00  0.286E+00  0.286E+00
  4.167  0.844E+00  0.281E+00  0.281E+00  0.281E+00
  4.177  0.829E+00  0.276E+00  0.276E+00  0.276E+00
  4.187  0.815E+00  0.272E+00  0.272E+00  0.272E+00
  4.197  0.800E+00  0.267E+00  0.267E+00  0.267E+00
  4.207  0.787E+00  0.262E+00  0.262E+00  0.262E+00
  4.217  0.773E+00  0.258E+00  0.258E+00  0.258E+00
  4.227  0.760E+00  0.253E+00  0.253E+00  0.253E+00
  4.237  0.747E+00  0.249E+00  0.249E+00  0.249E+00
  4.247  0.734E+00  0.245E+00  0.245E+00  0.245E+00
  4.257  0.722E+00  0.241E+00  0.241E+00  0.241E+00
  4.267  0.709E+00  0.236E+00  0.236E+00  0.236E+00
  4.277  0.697E+00  0.232E+00  0.232E+00  0.232E+00
  4.287  0.685E+00  0.228E+00  0.228E+00  0.228E+00
  4.297  0.673E+00  0.224E+00  0.224E+00  0.224E+00
  4.307  0.661E+00  0.220E+00  0.220E+00  0.220E+00
  4.317  0.649E+00  0.216E+00  0.216E+00  0.216E+00
  4.327  0.638E+00  0.213E+00  0.213E+00  0.213E+00
  4.337  0.626E+00  0.209E+00  0.209E+00  0.209E+00
  4.347  0.615E+00  0.205E+00  0.205E+00  0.205E+00
  4.357  0.604E+00  0.201E+00  0.201E+00  0.201E+00
  4.367  0.593E+00  0.198E+00  0.198E+00  0.198E+00
  4.377  0.582E+00  0.194E+00  0.194E+00  0.194E+00
  4.387  0.571E+00  0.190E+00  0.190E+00  0.190E+00
  4.397  0.561E+00  0.187E+00  0.187E+00  0.187E+00
  4.407  0.550E+00  0.183E+00  0.183E+00  0.183E+00
  4.417  0.540E+00  0.180E+00  0.180E+00  0.180E+00
  4.427  0.530E+00  0.177E+00  0.177E+00  0.177E+00
  4.437  0.520E+00  0.173E+00  0.173E+00  0.173E+00
  4.447  0.510E+00  0.170E+00  0.170E+00  0.170E+00
  4.457  0.501E+00  0.167E+00  0.167E+00  0.167E+00
  4.467  0.491E+00  0.164E+00  0.164E+00  0.164E+00
  4.477  0.482E+00  0.161E+00  0.161E+00  0.161E+00
  4.487  0.473E+00  0.158E+00  0.158E+00  0.158E+00
  4.497  0.463E+00  0.154E+00  0.154E+00  0.154E+00
  4.507  0.454E+00  0.151E+00  0.151E+00  0.151E+00
  4.517  0.445E+00  0.148E+00  0.148E+00  0.148E+00
  4.527  0.435E+00  0.145E+00  0.145E+00  0.145E+00
  4.537  0.426E+00  0.142E+00  0.142E+00  0.142E+00
  4.547  0.416E+00  0.139E+00  0.139E+00  0.139E+00
  4.557  0.406E+00  0.135E+00  0.135E+00  0.135E+00
  4.567  0.396E+00  0.132E+00  0.132E+00  0.132E+00
  4.577  0.385E+00  0.128E+00  0.128E+00  0.128E+00
  4.587  0.374E+00  0.125E+00  0.125E+00  0.125E+00
  4.597  0.362E+00  0.121E+00  0.121E+00  0.121E+00
  4.607  0.350E+00  0.117E+00  0.117E+00  0.117E+00
  4.617  0.337E+00  0.112E+00  0.112E+00  0.112E+00
  4.627  0.324E+00  0.108E+00  0.108E+00  0.108E+00
  4.637  0.311E+00  0.104E+00  0.104E+00  0.104E+00
  4.647  0.296E+00  0.988E-01  0.988E-01  0.988E-01
  4.657  0.282E+00  0.940E-01  0.940E-01  0.940E-01
  4.667  0.267E+00  0.890E-01  0.890E-01  0.890E-01
  4.677  0.252E+00  0.840E-01  0.840E-01  0.840E-01
  4.687  0.237E+00  0.789E-01  0.789E-01  0.789E-01
  4.697  0.221E+00  0.737E-01  0.737E-01  0.737E-01
  4.707  0.206E+00  0.686E-01  0.686E-01  0.686E-01
  4.717  0.190E+00  0.635E-01  0.635E-01  0.635E-01
  4.727  0.175E+00  0.585E-01  0.585E-01  0.585E-01
  4.737  0.161E+00  0.535E-01  0.535E-01  0.535E-01
  4.747  0.146E+00  0.488E-01  0.488E-01  0.488E-01
  4.757  0.132E+00  0.442E-01  0.442E-01  0.442E-01
  4.767  0.119E+00  0.397E-01  0.397E-01  0.397E-01
  4.777  0.107E+00  0.356E-01  0.356E-01  0.356E-01
  4.787  0.948E-01  0.316E-01  0.316E-01  0.316E-01
  4.797  0.837E-01  0.279E-01  0.279E-01  0.279E-01
  4.807  0.735E-01  0.245E-01  0.245E-01  0.245E-01
  4.817  0.640E-01  0.213E-01  0.213E-01  0.213E-01
  4.827  0.554E-01  0.185E-01  0.185E-01  0.185E-01
  4.837  0.476E-01  0.159E-01  0.159E-01  0.159E-01
  4.847  0.406E-01  0.135E-01  0.135E-01  0.135E-01
  4.857  0.343E-01  0.114E-01  0.114E-01  0.114E-01
  4.867  0.288E-01  0.961E-02  0.961E-02  0.961E-02
  4.877  0.240E-01  0.801E-02  0.801E-02  0.801E-02
  4.887  0.199E-01  0.662E-02  0.662E-02  0.662E-02
  4.897  0.163E-01  0.543E-02  0.543E-02  0.543E-02
  4.907  0.133E-01  0.442E-02  0.442E-02  0.442E-02
  4.917  0.107E-01  0.356E-02  0.356E-02  0.356E-02
  4.927  0.855E-02  0.285E-02  0.285E-02  0.285E-02
  4.937  0.678E-02  0.226E-02  0.226E-02  0.226E-02
  4.947  0.533E-02  0.178E-02  0.178E-02  0.178E-02
  4.957  0.415E-02  0.138E-02  0.138E-02  0.138E-02
  4.967  0.320E-02  0.107E-02  0.107E-02  0.107E-02
  4.977  0.245E-02  0.817E-03  0.817E-03  0.817E-03
  4.987  0.186E-02  0.620E-03  0.620E-03  0.620E-03
  4.997  0.140E-02  0.465E-03  0.465E-03  0.465E-03
  5.007  0.104E-02  0.346E-03  0.346E-03  0.346E-03
  5.017  0.766E-03  0.255E-03  0.255E-03  0.255E-03
  5.027  0.559E-03  0.186E-03  0.186E-03  0.186E-03
  5.037  0.405E-03  0.135E-03  0.135E-03  0.135E-03
  5.047  0.290E-03  0.966E-04  0.966E-04  0.966E-04
  5.057  0.206E-03  0.685E-04  0.685E-04  0.685E-04
  5.067  0.144E-03  0.481E-04  0.481E-04  0.481E-04
  5.077  0.100E-03  0.335E-04  0.335E-04  0.335E-04
  5.087  0.692E-04  0.231E-04  0.231E-04  0.231E-04
  5.097  0.472E-04  0.157E-04  0.157E-04  0.157E-04
  5.107  0.319E-04  0.106E-04  0.106E-04  0.106E-04
  5.117  0.213E-04  0.710E-05  0.710E-05  0.710E-05
  5.127  0.141E-04  0.470E-05  0.470E-05  0.470E-05
  5.137  0.924E-05  0.308E-05  0.308E-05  0.308E-05
  5.147  0.599E-05  0.200E-05  0.200E-05  0.200E-05
  5.157  0.385E-05  0.128E-05  0.128E-05  0.128E-05
  5.167  0.244E-05  0.815E-06  0.815E-06  0.815E-06
  5.177  0.154E-05  0.513E-06  0.513E-06  0.513E-06
  5.187  0.957E-06  0.319E-06  0.319E-06  0.319E-06
  5.197  0.590E-06  0.197E-06  0.197E-06  0.197E-06
  5.207  0.360E-06  0.120E-06  0.120E-06  0.120E-06
  5.217  0.217E-06  0.724E-07  0.724E-07  0.724E-07
  5.227  0.130E-06  0.433E-07  0.433E-07  0.433E-07
  5.237  0.768E-07  0.256E-07  0.256E-07  0.256E-07
  5.247  0.449E-07  0.150E-07  0.150E-07  0.150E-07
  5.257  0.260E-07  0.868E-08  0.868E-08  0.868E-08
  5.267  0.149E-07  0.497E-08  0.497E-08  0.497E-08
  5.277  0.846E-08  0.282E-08  0.282E-08  0.282E-08
  5.287  0.475E-08  0.158E-08  0.158E-08  0.158E-08
  5.297  0.264E-08  0.880E-09  0.880E-09  0.880E-09
  5.307  0.145E-08  0.484E-09  0.484E-09  0.484E-09
  5.317  0.790E-09  0.263E-09  0.263E-09  0.263E-09
  5.327  0.425E-09  0.142E-09  0.142E-09  0.142E-09
  5.337  0.226E-09  0.755E-10  0.755E-10  0.755E-10
  5.347  0.119E-09  0.398E-10  0.398E-10  0.398E-10
  5.357  0.622E-10  0.207E-10  0.207E-10  0.207E-10
  5.367  0.321E-10  0.107E-10  0.107E-10  0.107E-10
  5.377  0.164E-10  0.546E-11  0.546E-11  0.546E-11
  5.387  0.825E-11  0.275E-11  0.275E-11  0.275E-11
  5.397  0.407E-11  0.136E-11  0.136E-11  0.136E-11
  5.407  0.202E-11  0.672E-12  0.672E-12  0.672E-12
  5.417  0.932E-12  0.311E-12  0.311E-12  0.311E-12
  5.427  0.453E-12  0.151E-12  0.151E-12  0.151E-12
  5.437  0.218E-12  0.726E-13  0.726E-13  0.726E-13
  5.447  0.716E-13  0.239E-13  0.239E-13  0.239E-13
  5.457  0.140E-13  0.467E-14  0.467E-14  0.467E-14
  5.467  0.000E+00  0.000E+00  0.000E+00  0.000E+00
  5.477  0.000E+00  0.000E+00  0.000E+00  0.000E+00
  5.487  0.000E+00  0.000E+00  0.000E+00  0.000E+00
  5.497  0.000E+00  0.000E+00  0.000E+00  0.000E+00
  5.507  0.000E+00  0.000E+00  0.000E+00  0.000E+00
  5.517  0.000E+00  0.000E+00  0.000E+00  0.000E+00
  5.527  0.000E+00  0.000E+00  0.000E+00  0.000E+00
  5.537  0.000E+00  0.000E+00  0.000E+00  0.000E+00
  5.547  0.000E+00  0.000E+00  0.000E+00  0.000E+00
  5.557  0.000E+00  0.000E+00  0.000E+00  0.000E+00
  5.567  0.000E+00  0.000E+00  0.000E+00  0.000E+00
  5.577  0.000E+00  0.000E+00  0.000E+00  0.000E+00
  5.587  0.000E+00  0.000E+00  0.000E+00  0.000E+00
  5.597  0.000E+00  0.000E+00  0.000E+00  0.000E+00
  5.607  0.000E+00  0.000E+00  0.000E+00  0.000E+00
  5.617  0.000E+00  0.000E+00  0.000E+00  0.000E+00
  5.627  0.000E+00  0.000E+00  0.000E+00  0.000E+00
  5.637  0.000E+00  0.000E+00  0.000E+00  0.000E+00
  5.647  0.000E+00  0.000E+00  0.000E+00  0.000E+00
  5.657  0.000E+00  0.000E+00  0.000E+00  0.000E+00
  5.667  0.000E+00  0.000E+00  0.000E+00  0.000E+00
  5.677  0.000E+00  0.000E+00  0.000E+00  0.000E+00
  5.687  0.000E+00  0.000E+00  0.000E+00  0.000E+00
  5.697  0.000E+00  0.000E+00  0.000E+00  0.000E+00
  5.707  0.150E-25  0.501E-26  0.501E-26  0.501E-26
  5.717  0.316E-25  0.105E-25  0.105E-25  0.105E-25
  5.727  0.655E-25  0.218E-25  0.218E-25  0.218E-25
  5.737  0.135E-24  0.449E-25  0.449E-25  0.449E-25
  5.747  0.273E-24  0.911E-25  0.911E-25  0.911E-25
  5.757  0.333E-16  0.111E-16  0.111E-16  0.111E-16
  5.767  0.699E-16  0.233E-16  0.233E-16  0.233E-16
  5.777  0.145E-15  0.484E-16  0.484E-16  0.484E-16
  5.787  0.298E-15  0.994E-16  0.994E-16  0.994E-16
  5.797  0.257E-14  0.855E-15  0.855E-15  0.855E-15
  5.807  0.532E-14  0.177E-14  0.177E-14  0.177E-14
  5.817  0.109E-13  0.364E-14  0.364E-14  0.364E-14
  5.827  0.221E-13  0.738E-14  0.738E-14  0.738E-14
  5.837  0.445E-13  0.148E-13  0.148E-13  0.148E-13
  5.847  0.883E-13  0.294E-13  0.294E-13  0.294E-13
  5.857  0.174E-12  0.579E-13  0.579E-13  0.579E-13
  5.867  0.340E-12  0.113E-12  0.113E-12  0.113E-12
  5.877  0.654E-12  0.218E-12  0.218E-12  0.218E-12
  5.887  0.125E-11  0.415E-12  0.415E-12  0.415E-12
  5.897  0.235E-11  0.784E-12  0.784E-12  0.784E-12
  5.907  0.439E-11  0.146E-11  0.146E-11  0.146E-11
  5.917  0.811E-11  0.270E-11  0.270E-11  0.270E-11
  5.927  0.148E-10  0.494E-11  0.494E-11  0.494E-11
  5.937  0.268E-10  0.894E-11  0.894E-11  0.894E-11
  5.947  0.480E-10  0.160E-10  0.160E-10  0.160E-10
  5.957  0.850E-10  0.283E-10  0.283E-10  0.283E-10
  5.967  0.149E-09  0.496E-10  0.496E-10  0.496E-10
  5.977  0.258E-09  0.861E-10  0.861E-10  0.861E-10
  5.987  0.443E-09  0.148E-09  0.148E-09  0.148E-09
  5.997  0.752E-09  0.251E-09  0.251E-09  0.251E-09
  6.007  0.126E-08  0.421E-09  0.421E-09  0.421E-09
  6.017  0.210E-08  0.701E-09  0.701E-09  0.701E-09
  6.027  0.346E-08  0.115E-08  0.115E-08  0.115E-08
  6.037  0.563E-08  0.188E-08  0.188E-08  0.188E-08
  6.047  0.908E-08  0.303E-08  0.303E-08  0.303E-08
  6.057  0.145E-07  0.483E-08  0.483E-08  0.483E-08
  6.067  0.229E-07  0.762E-08  0.762E-08  0.762E-08
  6.077  0.357E-07  0.119E-07  0.119E-07  0.119E-07
  6.087  0.552E-07  0.184E-07  0.184E-07  0.184E-07
  6.097  0.845E-07  0.282E-07  0.282E-07  0.282E-07
  6.107  0.128E-06  0.426E-07  0.426E-07  0.426E-07
  6.117  0.192E-06  0.639E-07  0.639E-07  0.639E-07
  6.127  0.285E-06  0.949E-07  0.949E-07  0.949E-07
  6.137  0.418E-06  0.139E-06  0.139E-06  0.139E-06
  6.147  0.608E-06  0.203E-06  0.203E-06  0.203E-06
  6.157  0.876E-06  0.292E-06  0.292E-06  0.292E-06
  6.167  0.125E-05  0.416E-06  0.416E-06  0.416E-06
  6.177  0.176E-05  0.587E-06  0.587E-06  0.587E-06
  6.187  0.246E-05  0.821E-06  0.821E-06  0.821E-06
  6.197  0.341E-05  0.114E-05  0.114E-05  0.114E-05
  6.207  0.467E-05  0.156E-05  0.156E-05  0.156E-05
  6.217  0.634E-05  0.211E-05  0.211E-05  0.211E-05
  6.227  0.853E-05  0.284E-05  0.284E-05  0.284E-05
  6.237  0.114E-04  0.379E-05  0.379E-05  0.379E-05
  6.247  0.150E-04  0.500E-05  0.500E-05  0.500E-05
  6.257  0.196E-04  0.654E-05  0.654E-05  0.654E-05
  6.267  0.254E-04  0.848E-05  0.848E-05  0.848E-05
  6.277  0.327E-04  0.109E-04  0.109E-04  0.109E-04
  6.287  0.417E-04  0.139E-04  0.139E-04  0.139E-04
  6.297  0.526E-04  0.175E-04  0.175E-04  0.175E-04
  6.307  0.659E-04  0.220E-04  0.220E-04  0.220E-04
  6.317  0.820E-04  0.273E-04  0.273E-04  0.273E-04
  6.327  0.101E-03  0.337E-04  0.337E-04  0.337E-04
  6.337  0.124E-03  0.412E-04  0.412E-04  0.412E-04
  6.347  0.150E-03  0.501E-04  0.501E-04  0.501E-04
  6.357  0.181E-03  0.604E-04  0.604E-04  0.604E-04
  6.367  0.217E-03  0.723E-04  0.723E-04  0.723E-04
  6.377  0.258E-03  0.859E-04  0.859E-04  0.859E-04
  6.387  0.304E-03  0.101E-03  0.101E-03  0.101E-03
  6.397  0.357E-03  0.119E-03  0.119E-03  0.119E-03
  6.407  0.417E-03  0.139E-03  0.139E-03  0.139E-03
  6.417  0.483E-03  0.161E-03  0.161E-03  0.161E-03
  6.427  0.557E-03  0.186E-03  0.186E-03  0.186E-03
  6.437  0.638E-03  0.213E-03  0.213E-03  0.213E-03
  6.447  0.728E-03  0.243E-03  0.243E-03  0.243E-03
  6.457  0.826E-03  0.275E-03  0.275E-03  0.275E-03
  6.467  0.932E-03  0.311E-03  0.311E-03  0.311E-03
  6.477  0.105E-02  0.349E-03  0.349E-03  0.349E-03
  6.487  0.117E-02  0.391E-03  0.391E-03  0.391E-03
  6.497  0.131E-02  0.435E-03  0.435E-03  0.435E-03
  6.507  0.145E-02  0.483E-03  0.483E-03  0.483E-03
  6.517  0.160E-02  0.534E-03  0.534E-03  0.534E-03
  6.527  0.176E-02  0.588E-03  0.588E-03  0.588E-03
  6.537  0.194E-02  0.646E-03  0.646E-03  0.646E-03
  6.547  0.212E-02  0.707E-03  0.707E-03  0.707E-03
  6.557  0.232E-02  0.773E-03  0.773E-03  0.773E-03
  6.567  0.252E-02  0.842E-03  0.842E-03  0.842E-03
  6.577  0.274E-02  0.915E-03  0.915E-03  0.915E-03
  6.587  0.298E-02  0.992E-03  0.992E-03  0.992E-03
  6.597  0.322E-02  0.107E-02  0.107E-02  0.107E-02
  6.607  0.348E-02  0.116E-02  0.116E-02  0.116E-02
  6.617  0.376E-02  0.125E-02  0.125E-02  0.125E-02
  6.627  0.405E-02  0.135E-02  0.135E-02  0.135E-02
  6.637  0.436E-02  0.145E-02  0.145E-02  0.145E-02
  6.647  0.468E-02  0.156E-02  0.156E-02  0.156E-02
  6.657  0.502E-02  0.167E-02  0.167E-02  0.167E-02
  6.667  0.538E-02  0.179E-02  0.179E-02  0.179E-02
  6.677  0.575E-02  0.192E-02  0.192E-02  0.192E-02
  6.687  0.614E-02  0.205E-02  0.205E-02  0.205E-02
  6.697  0.654E-02  0.218E-02  0.218E-02  0.218E-02
  6.707  0.695E-02  0.232E-02  0.232E-02  0.232E-02
  6.717  0.737E-02  0.246E-02  0.246E-02  0.246E-02
  6.727  0.779E-02  0.260E-02  0.260E-02  0.260E-02
  6.737  0.823E-02  0.274E-02  0.274E-02  0.274E-02
  6.747  0.868E-02  0.289E-02  0.289E-02  0.289E-02
  6.757  0.912E-02  0.304E-02  0.304E-02  0.304E-02
  6.767  0.958E-02  0.319E-02  0.319E-02  0.319E-02
  6.777  0.100E-01  0.335E-02  0.335E-02  0.335E-02
  6.787  0.105E-01  0.350E-02  0.350E-02  0.350E-02
  6.797  0.110E-01  0.366E-02  0.366E-02  0.366E-02
  6.807  0.115E-01  0.382E-02  0.382E-02  0.382E-02
  6.817  0.120E-01  0.399E-02  0.399E-02  0.399E-02
  6.827  0.125E-01  0.416E-02  0.416E-02  0.416E-02
  6.837  0.130E-01  0.433E-02  0.433E-02  0.433E-02
  6.847  0.135E-01  0.451E-02  0.451E-02  0.451E-02
  6.857  0.141E-01  0.470E-02  0.470E-02  0.470E-02
  6.867  0.147E-01  0.490E-02  0.490E-02  0.490E-02
  6.877  0.153E-01  0.510E-02  0.510E-02  0.510E-02
  6.887  0.159E-01  0.531E-02  0.531E-02  0.531E-02
  6.897  0.166E-01  0.553E-02  0.553E-02  0.553E-02
  6.907  0.173E-01  0.576E-02  0.576E-02  0.576E-02
  6.917  0.180E-01  0.599E-02  0.599E-02  0.599E-02
  6.927  0.187E-01  0.623E-02  0.623E-02  0.623E-02
  6.937  0.194E-01  0.648E-02  0.648E-02  0.648E-02
  6.947  0.202E-01  0.673E-02  0.673E-02  0.673E-02
  6.957  0.210E-01  0.699E-02  0.699E-02  0.699E-02
  6.967  0.217E-01  0.724E-02  0.724E-02  0.724E-02
  6.977  0.225E-01  0.750E-02  0.750E-02  0.750E-02
  6.987  0.233E-01  0.776E-02  0.776E-02  0.776E-02
  6.997  0.241E-01  0.802E-02  0.802E-02  0.802E-02
  7.007  0.248E-01  0.827E-02  0.827E-02  0.827E-02
  7.017  0.256E-01  0.853E-02  0.853E-02  0.853E-02
  7.027  0.263E-01  0.878E-02  0.878E-02  0.878E-02
  7.037  0.271E-01  0.903E-02  0.903E-02  0.903E-02
  7.047  0.278E-01  0.927E-02  0.927E-02  0.927E-02
  7.057  0.285E-01  0.952E-02  0.952E-02  0.952E-02
  7.067  0.293E-01  0.976E-02  0.976E-02  0.976E-02
  7.077  0.300E-01  0.100E-01  0.100E-01  0.100E-01
  7.087  0.307E-01  0.102E-01  0.102E-01  0.102E-01
  7.097  0.315E-01  0.105E-01  0.105E-01  0.105E-01
  7.107  0.322E-01  0.107E-01  0.107E-01  0.107E-01
  7.117  0.330E-01  0.110E-01  0.110E-01  0.110E-01
  7.127  0.339E-01  0.113E-01  0.113E-01  0.113E-01
  7.137  0.347E-01  0.116E-01  0.116E-01  0.116E-01
  7.147  0.357E-01  0.119E-01  0.119E-01  0.119E-01
  7.157  0.367E-01  0.122E-01  0.122E-01  0.122E-01
  7.167  0.378E-01  0.126E-01  0.126E-01  0.126E-01
  7.177  0.389E-01  0.130E-01  0.130E-01  0.130E-01
  7.187  0.402E-01  0.134E-01  0.134E-01  0.134E-01
  7.197  0.415E-01  0.138E-01  0.138E-01  0.138E-01
  7.207  0.430E-01  0.143E-01  0.143E-01  0.143E-01
  7.217  0.446E-01  0.149E-01  0.149E-01  0.149E-01
  7.227  0.462E-01  0.154E-01  0.154E-01  0.154E-01
  7.237  0.480E-01  0.160E-01  0.160E-01  0.160E-01
  7.247  0.498E-01  0.166E-01  0.166E-01  0.166E-01
  7.257  0.518E-01  0.173E-01  0.173E-01  0.173E-01
  7.267  0.538E-01  0.179E-01  0.179E-01  0.179E-01
  7.277  0.558E-01  0.186E-01  0.186E-01  0.186E-01
  7.287  0.579E-01  0.193E-01  0.193E-01  0.193E-01
  7.297  0.599E-01  0.200E-01  0.200E-01  0.200E-01
  7.307  0.620E-01  0.207E-01  0.207E-01  0.207E-01
  7.317  0.640E-01  0.213E-01  0.213E-01  0.213E-01
  7.327  0.660E-01  0.220E-01  0.220E-01  0.220E-01
  7.337  0.678E-01  0.226E-01  0.226E-01  0.226E-01
  7.347  0.696E-01  0.232E-01  0.232E-01  0.232E-01
  7.357  0.713E-01  0.238E-01  0.238E-01  0.238E-01
  7.367  0.728E-01  0.243E-01  0.243E-01  0.243E-01
  7.377  0.743E-01  0.248E-01  0.248E-01  0.248E-01
  7.387  0.755E-01  0.252E-01  0.252E-01  0.252E-01
  7.397  0.767E-01  0.256E-01  0.256E-01  0.256E-01
  7.407  0.777E-01  0.259E-01  0.259E-01  0.259E-01
  7.417  0.787E-01  0.262E-01  0.262E-01  0.262E-01
  7.427  0.795E-01  0.265E-01  0.265E-01  0.265E-01
  7.437  0.803E-01  0.268E-01  0.268E-01  0.268E-01
  7.447  0.811E-01  0.270E-01  0.270E-01  0.270E-01
  7.457  0.820E-01  0.273E-01  0.273E-01  0.273E-01
  7.467  0.828E-01  0.276E-01  0.276E-01  0.276E-01
  7.477  0.838E-01  0.279E-01  0.279E-01  0.279E-01
  7.487  0.850E-01  0.283E-01  0.283E-01  0.283E-01
  7.497  0.863E-01  0.288E-01  0.288E-01  0.288E-01
  7.507  0.879E-01  0.293E-01  0.293E-01  0.293E-01
  7.517  0.897E-01  0.299E-01  0.299E-01  0.299E-01
  7.527  0.918E-01  0.306E-01  0.306E-01  0.306E-01
  7.537  0.941E-01  0.314E-01  0.314E-01  0.314E-01
  7.547  0.968E-01  0.323E-01  0.323E-01  0.323E-01
  7.557  0.997E-01  0.332E-01  0.332E-01  0.332E-01
  7.567  0.103E+00  0.342E-01  0.342E-01  0.342E-01
  7.577  0.106E+00  0.353E-01  0.353E-01  0.353E-01
  7.587  0.109E+00  0.365E-01  0.365E-01  0.365E-01
  7.597  0.113E+00  0.376E-01  0.376E-01  0.376E-01
  7.607  0.116E+00  0.388E-01  0.388E-01  0.388E-01
  7.617  0.120E+00  0.399E-01  0.399E-01  0.399E-01
  7.627  0.123E+00  0.409E-01  0.409E-01  0.409E-01
  7.637  0.126E+00  0.419E-01  0.419E-01  0.419E-01
  7.647  0.129E+00  0.428E-01  0.428E-01  0.428E-01
  7.657  0.131E+00  0.437E-01  0.437E-01  0.437E-01
  7.667  0.133E+00  0.444E-01  0.444E-01  0.444E-01
  7.677  0.135E+00  0.449E-01  0.449E-01  0.449E-01
  7.687  0.136E+00  0.454E-01  0.454E-01  0.454E-01
  7.697  0.137E+00  0.458E-01  0.458E-01  0.458E-01
  7.707  0.138E+00  0.460E-01  0.460E-01  0.460E-01
  7.717  0.139E+00  0.462E-01  0.462E-01  0.462E-01
  7.727  0.139E+00  0.464E-01  0.464E-01  0.464E-01
  7.737  0.139E+00  0.465E-01  0.465E-01  0.465E-01
  7.747  0.140E+00  0.465E-01  0.465E-01  0.465E-01
  7.757  0.140E+00  0.466E-01  0.466E-01  0.466E-01
  7.767  0.140E+00  0.467E-01  0.467E-01  0.467E-01
  7.777  0.141E+00  0.469E-01  0.469E-01  0.469E-01
  7.787  0.141E+00  0.472E-01  0.472E-01  0.472E-01
  7.797  0.142E+00  0.475E-01  0.475E-01  0.475E-01
  7.807  0.144E+00  0.479E-01  0.479E-01  0.479E-01
  7.817  0.145E+00  0.485E-01  0.485E-01  0.485E-01
  7.827  0.147E+00  0.492E-01  0.492E-01  0.492E-01
  7.837  0.150E+00  0.499E-01  0.499E-01  0.499E-01
  7.847  0.153E+00  0.508E-01  0.508E-01  0.508E-01
  7.857  0.156E+00  0.519E-01  0.519E-01  0.519E-01
  7.867  0.159E+00  0.530E-01  0.530E-01  0.530E-01
  7.877  0.162E+00  0.541E-01  0.541E-01  0.541E-01
  7.887  0.166E+00  0.554E-01  0.554E-01  0.554E-01
  7.897  0.170E+00  0.567E-01  0.567E-01  0.567E-01
  7.907  0.174E+00  0.580E-01  0.580E-01  0.580E-01
  7.917  0.178E+00  0.593E-01  0.593E-01  0.593E-01
  7.927  0.182E+00  0.606E-01  0.606E-01  0.606E-01
  7.937  0.185E+00  0.618E-01  0.618E-01  0.618E-01
  7.947  0.189E+00  0.631E-01  0.631E-01  0.631E-01
  7.957  0.193E+00  0.642E-01  0.642E-01  0.642E-01
  7.967  0.196E+00  0.653E-01  0.653E-01  0.653E-01
  7.977  0.199E+00  0.664E-01  0.664E-01  0.664E-01
  7.987  0.202E+00  0.674E-01  0.674E-01  0.674E-01
  7.997  0.205E+00  0.684E-01  0.684E-01  0.684E-01
  8.007  0.208E+00  0.694E-01  0.694E-01  0.694E-01
  8.017  0.211E+00  0.703E-01  0.703E-01  0.703E-01
  8.027  0.214E+00  0.713E-01  0.713E-01  0.713E-01
  8.037  0.217E+00  0.722E-01  0.722E-01  0.722E-01
  8.047  0.220E+00  0.733E-01  0.733E-01  0.733E-01
  8.057  0.223E+00  0.744E-01  0.744E-01  0.744E-01
  8.067  0.227E+00  0.755E-01  0.755E-01  0.755E-01
  8.077  0.230E+00  0.767E-01  0.767E-01  0.767E-01
  8.087  0.234E+00  0.781E-01  0.781E-01  0.781E-01
  8.097  0.238E+00  0.795E-01  0.795E-01  0.795E-01
  8.107  0.243E+00  0.809E-01  0.809E-01  0.809E-01
  8.117  0.247E+00  0.825E-01  0.825E-01  0.825E-01
  8.127  0.252E+00  0.841E-01  0.841E-01  0.841E-01
  8.137  0.257E+00  0.857E-01  0.857E-01  0.857E-01
  8.147  0.262E+00  0.873E-01  0.873E-01  0.873E-01
  8.157  0.267E+00  0.889E-01  0.889E-01  0.889E-01
  8.167  0.271E+00  0.905E-01  0.905E-01  0.905E-01
  8.177  0.276E+00  0.920E-01  0.920E-01  0.920E-01
  8.187  0.280E+00  0.934E-01  0.934E-01  0.934E-01
  8.197  0.284E+00  0.947E-01  0.947E-01  0.947E-01
  8.207  0.288E+00  0.959E-01  0.959E-01  0.959E-01
  8.217  0.291E+00  0.970E-01  0.970E-01  0.970E-01
  8.227  0.294E+00  0.979E-01  0.979E-01  0.979E-01
  8.237  0.296E+00  0.987E-01  0.987E-01  0.987E-01
  8.247  0.298E+00  0.994E-01  0.994E-01  0.994E-01
  8.257  0.300E+00  0.100E+00  0.100E+00  0.100E+00
  8.267  0.301E+00  0.100E+00  0.100E+00  0.100E+00
  8.277  0.302E+00  0.101E+00  0.101E+00  0.101E+00
  8.287  0.303E+00  0.101E+00  0.101E+00  0.101E+00
  8.297  0.303E+00  0.101E+00  0.101E+00  0.101E+00
  8.307  0.304E+00  0.101E+00  0.101E+00  0.101E+00
  8.317  0.304E+00  0.101E+00  0.101E+00  0.101E+00
  8.327  0.304E+00  0.101E+00  0.101E+00  0.101E+00
  8.337  0.304E+00  0.101E+00  0.101E+00  0.101E+00
  8.347  0.303E+00  0.101E+00  0.101E+00  0.101E+00
  8.357  0.303E+00  0.101E+00  0.101E+00  0.101E+00
  8.367  0.303E+00  0.101E+00  0.101E+00  0.101E+00
  8.377  0.303E+00  0.101E+00  0.101E+00  0.101E+00
  8.387  0.303E+00  0.101E+00  0.101E+00  0.101E+00
  8.397  0.303E+00  0.101E+00  0.101E+00  0.101E+00
  8.407  0.302E+00  0.101E+00  0.101E+00  0.101E+00
  8.417  0.302E+00  0.101E+00  0.101E+00  0.101E+00
  8.427  0.302E+00  0.101E+00  0.101E+00  0.101E+00
  8.437  0.301E+00  0.100E+00  0.100E+00  0.100E+00
  8.447  0.301E+00  0.100E+00  0.100E+00  0.100E+00
  8.457  0.300E+00  0.100E+00  0.100E+00  0.100E+00
  8.467  0.300E+00  0.100E+00  0.100E+00  0.100E+00
  8.477  0.299E+00  0.998E-01  0.998E-01  0.998E-01
  8.487  0.299E+00  0.996E-01  0.996E-01  0.996E-01
  8.497  0.298E+00  0.994E-01  0.994E-01  0.994E-01
  8.507  0.298E+00  0.992E-01  0.992E-01  0.992E-01
  8.517  0.297E+00  0.991E-01  0.991E-01  0.991E-01
  8.527  0.297E+00  0.990E-01  0.990E-01  0.990E-01
  8.537  0.297E+00  0.990E-01  0.990E-01  0.990E-01
  8.547  0.297E+00  0.991E-01  0.991E-01  0.991E-01
  8.557  0.298E+00  0.992E-01  0.992E-01  0.992E-01
  8.567  0.298E+00  0.995E-01  0.995E-01  0.995E-01
  8.577  0.300E+00  0.998E-01  0.998E-01  0.998E-01
  8.587  0.301E+00  0.100E+00  0.100E+00  0.100E+00
  8.597  0.303E+00  0.101E+00  0.101E+00  0.101E+00
  8.607  0.304E+00  0.101E+00  0.101E+00  0.101E+00
  8.617  0.306E+00  0.102E+00  0.102E+00  0.102E+00
  8.627  0.309E+00  0.103E+00  0.103E+00  0.103E+00
  8.637  0.311E+00  0.104E+00  0.104E+00  0.104E+00
  8.647  0.313E+00  0.104E+00  0.104E+00  0.104E+00
  8.657  0.316E+00  0.105E+00  0.105E+00  0.105E+00
  8.667  0.318E+00  0.106E+00  0.106E+00  0.106E+00
  8.677  0.320E+00  0.107E+00  0.107E+00  0.107E+00
  8.687  0.321E+00  0.107E+00  0.107E+00  0.107E+00
  8.697  0.323E+00  0.108E+00  0.108E+00  0.108E+00
  8.707  0.324E+00  0.108E+00  0.108E+00  0.108E+00
  8.717  0.325E+00  0.108E+00  0.108E+00  0.108E+00
  8.727  0.325E+00  0.108E+00  0.108E+00  0.108E+00
  8.737  0.326E+00  0.109E+00  0.109E+00  0.109E+00
  8.747  0.325E+00  0.108E+00  0.108E+00  0.108E+00
  8.757  0.325E+00  0.108E+00  0.108E+00  0.108E+00
  8.767  0.324E+00  0.108E+00  0.108E+00  0.108E+00
  8.777  0.323E+00  0.108E+00  0.108E+00  0.108E+00
  8.787  0.321E+00  0.107E+00  0.107E+00  0.107E+00
  8.797  0.319E+00  0.106E+00  0.106E+00  0.106E+00
  8.807  0.317E+00  0.106E+00  0.106E+00  0.106E+00
  8.817  0.314E+00  0.105E+00  0.105E+00  0.105E+00
  8.827  0.311E+00  0.104E+00  0.104E+00  0.104E+00
  8.837  0.307E+00  0.102E+00  0.102E+00  0.102E+00
  8.847  0.303E+00  0.101E+00  0.101E+00  0.101E+00
  8.857  0.298E+00  0.992E-01  0.992E-01  0.992E-01
  8.867  0.292E+00  0.974E-01  0.974E-01  0.974E-01
  8.877  0.286E+00  0.954E-01  0.954E-01  0.954E-01
  8.887  0.280E+00  0.933E-01  0.933E-01  0.933E-01
  8.897  0.273E+00  0.910E-01  0.910E-01  0.910E-01
  8.907  0.266E+00  0.886E-01  0.886E-01  0.886E-01
  8.917  0.258E+00  0.861E-01  0.861E-01  0.861E-01
  8.927  0.250E+00  0.834E-01  0.834E-01  0.834E-01
  8.937  0.242E+00  0.808E-01  0.808E-01  0.808E-01
  8.947  0.234E+00  0.780E-01  0.780E-01  0.780E-01
  8.957  0.226E+00  0.753E-01  0.753E-01  0.753E-01
  8.967  0.218E+00  0.726E-01  0.726E-01  0.726E-01
  8.977  0.210E+00  0.699E-01  0.699E-01  0.699E-01
  8.987  0.202E+00  0.673E-01  0.673E-01  0.673E-01
  8.997  0.194E+00  0.648E-01  0.648E-01  0.648E-01
  9.007  0.187E+00  0.624E-01  0.624E-01  0.624E-01
  9.017  0.180E+00  0.601E-01  0.601E-01  0.601E-01
  9.027  0.174E+00  0.579E-01  0.579E-01  0.579E-01
  9.037  0.168E+00  0.559E-01  0.559E-01  0.559E-01
  9.047  0.162E+00  0.540E-01  0.540E-01  0.540E-01
  9.057  0.157E+00  0.523E-01  0.523E-01  0.523E-01
  9.067  0.152E+00  0.507E-01  0.507E-01  0.507E-01
  9.077  0.148E+00  0.493E-01  0.493E-01  0.493E-01
  9.087  0.144E+00  0.481E-01  0.481E-01  0.481E-01
  9.097  0.141E+00  0.471E-01  0.471E-01  0.471E-01
  9.107  0.139E+00  0.462E-01  0.462E-01  0.462E-01
  9.117  0.137E+00  0.455E-01  0.455E-01  0.455E-01
  9.127  0.135E+00  0.450E-01  0.450E-01  0.450E-01
  9.137  0.134E+00  0.446E-01  0.446E-01  0.446E-01
  9.147  0.133E+00  0.444E-01  0.444E-01  0.444E-01
  9.157  0.133E+00  0.444E-01  0.444E-01  0.444E-01
  9.167  0.134E+00  0.446E-01  0.446E-01  0.446E-01
  9.177  0.135E+00  0.449E-01  0.449E-01  0.449E-01
  9.187  0.136E+00  0.453E-01  0.453E-01  0.453E-01
  9.197  0.138E+00  0.459E-01  0.459E-01  0.459E-01
  9.207  0.140E+00  0.467E-01  0.467E-01  0.467E-01
  9.217  0.143E+00  0.476E-01  0.476E-01  0.476E-01
  9.227  0.146E+00  0.486E-01  0.486E-01  0.486E-01
  9.237  0.149E+00  0.498E-01  0.498E-01  0.498E-01
  9.247  0.153E+00  0.511E-01  0.511E-01  0.511E-01
  9.257  0.158E+00  0.526E-01  0.526E-01  0.526E-01
  9.267  0.162E+00  0.541E-01  0.541E-01  0.541E-01
  9.277  0.168E+00  0.559E-01  0.559E-01  0.559E-01
  9.287  0.173E+00  0.577E-01  0.577E-01  0.577E-01
  9.297  0.179E+00  0.597E-01  0.597E-01  0.597E-01
  9.307  0.185E+00  0.618E-01  0.618E-01  0.618E-01
  9.317  0.192E+00  0.640E-01  0.640E-01  0.640E-01
  9.327  0.199E+00  0.663E-01  0.663E-01  0.663E-01
  9.337  0.206E+00  0.688E-01  0.688E-01  0.688E-01
  9.347  0.214E+00  0.713E-01  0.713E-01  0.713E-01
  9.357  0.222E+00  0.739E-01  0.739E-01  0.739E-01
  9.367  0.230E+00  0.766E-01  0.766E-01  0.766E-01
  9.377  0.238E+00  0.794E-01  0.794E-01  0.794E-01
  9.387  0.246E+00  0.822E-01  0.822E-01  0.822E-01
  9.397  0.255E+00  0.850E-01  0.850E-01  0.850E-01
  9.407  0.263E+00  0.878E-01  0.878E-01  0.878E-01
  9.417  0.272E+00  0.905E-01  0.905E-01  0.905E-01
  9.427  0.280E+00  0.933E-01  0.933E-01  0.933E-01
  9.437  0.288E+00  0.959E-01  0.959E-01  0.959E-01
  9.447  0.295E+00  0.985E-01  0.985E-01  0.985E-01
  9.457  0.303E+00  0.101E+00  0.101E+00  0.101E+00
  9.467  0.309E+00  0.103E+00  0.103E+00  0.103E+00
  9.477  0.315E+00  0.105E+00  0.105E+00  0.105E+00
  9.487  0.321E+00  0.107E+00  0.107E+00  0.107E+00
  9.497  0.326E+00  0.109E+00  0.109E+00  0.109E+00
  9.507  0.330E+00  0.110E+00  0.110E+00  0.110E+00
  9.517  0.334E+00  0.111E+00  0.111E+00  0.111E+00
  9.527  0.337E+00  0.112E+00  0.112E+00  0.112E+00
  9.537  0.339E+00  0.113E+00  0.113E+00  0.113E+00
  9.547  0.340E+00  0.113E+00  0.113E+00  0.113E+00
  9.557  0.341E+00  0.114E+00  0.114E+00  0.114E+00
  9.567  0.341E+00  0.114E+00  0.114E+00  0.114E+00
  9.577  0.341E+00  0.114E+00  0.114E+00  0.114E+00
  9.587  0.340E+00  0.113E+00  0.113E+00  0.113E+00
  9.597  0.339E+00  0.113E+00  0.113E+00  0.113E+00
  9.607  0.338E+00  0.113E+00  0.113E+00  0.113E+00
  9.617  0.336E+00  0.112E+00  0.112E+00  0.112E+00
  9.627  0.334E+00  0.111E+00  0.111E+00  0.111E+00
  9.637  0.332E+00  0.111E+00  0.111E+00  0.111E+00
  9.647  0.330E+00  0.110E+00  0.110E+00  0.110E+00
  9.657  0.327E+00  0.109E+00  0.109E+00  0.109E+00
  9.667  0.325E+00  0.108E+00  0.108E+00  0.108E+00
  9.677  0.323E+00  0.108E+00  0.108E+00  0.108E+00
  9.687  0.321E+00  0.107E+00  0.107E+00  0.107E+00
  9.697  0.318E+00  0.106E+00  0.106E+00  0.106E+00
  9.707  0.316E+00  0.105E+00  0.105E+00  0.105E+00
  9.717  0.314E+00  0.105E+00  0.105E+00  0.105E+00
  9.727  0.312E+00  0.104E+00  0.104E+00  0.104E+00
  9.737  0.311E+00  0.104E+00  0.104E+00  0.104E+00
  9.747  0.309E+00  0.103E+00  0.103E+00  0.103E+00
  9.757  0.308E+00  0.103E+00  0.103E+00  0.103E+00
  9.767  0.306E+00  0.102E+00  0.102E+00  0.102E+00
  9.777  0.305E+00  0.102E+00  0.102E+00  0.102E+00
  9.787  0.303E+00  0.101E+00  0.101E+00  0.101E+00
  9.797  0.302E+00  0.101E+00  0.101E+00  0.101E+00
  9.807  0.301E+00  0.100E+00  0.100E+00  0.100E+00
  9.817  0.300E+00  0.998E-01  0.998E-01  0.998E-01
  9.827  0.298E+00  0.993E-01  0.993E-01  0.993E-01
  9.837  0.296E+00  0.987E-01  0.987E-01  0.987E-01
  9.847  0.294E+00  0.981E-01  0.981E-01  0.981E-01
  9.857  0.292E+00  0.973E-01  0.973E-01  0.973E-01
  9.867  0.289E+00  0.964E-01  0.964E-01  0.964E-01
  9.877  0.286E+00  0.953E-01  0.953E-01  0.953E-01
  9.887  0.282E+00  0.941E-01  0.941E-01  0.941E-01
  9.897  0.278E+00  0.927E-01  0.927E-01  0.927E-01
  9.907  0.274E+00  0.912E-01  0.912E-01  0.912E-01
  9.917  0.269E+00  0.895E-01  0.895E-01  0.895E-01
  9.927  0.263E+00  0.877E-01  0.877E-01  0.877E-01
  9.937  0.257E+00  0.858E-01  0.858E-01  0.858E-01
  9.947  0.251E+00  0.838E-01  0.838E-01  0.838E-01
  9.957  0.245E+00  0.817E-01  0.817E-01  0.817E-01
  9.967  0.239E+00  0.797E-01  0.797E-01  0.797E-01
  9.977  0.233E+00  0.776E-01  0.776E-01  0.776E-01
  9.987  0.227E+00  0.757E-01  0.757E-01  0.757E-01
  9.997  0.222E+00  0.739E-01  0.739E-01  0.739E-01
 10.007  0.217E+00  0.723E-01  0.723E-01  0.723E-01
 10.017  0.213E+00  0.709E-01  0.709E-01  0.709E-01
 10.027  0.209E+00  0.698E-01  0.698E-01  0.698E-01
 10.037  0.207E+00  0.690E-01  0.690E-01  0.690E-01
 10.047  0.205E+00  0.685E-01  0.685E-01  0.685E-01
 10.057  0.205E+00  0.683E-01  0.683E-01  0.683E-01
 10.067  0.206E+00  0.686E-01  0.686E-01  0.686E-01
 10.077  0.207E+00  0.692E-01  0.692E-01  0.692E-01
 10.087  0.210E+00  0.701E-01  0.701E-01  0.701E-01
 10.097  0.214E+00  0.714E-01  0.714E-01  0.714E-01
 10.107  0.219E+00  0.730E-01  0.730E-01  0.730E-01
 10.117  0.225E+00  0.749E-01  0.749E-01  0.749E-01
 10.127  0.231E+00  0.769E-01  0.769E-01  0.769E-01
 10.137  0.238E+00  0.792E-01  0.792E-01  0.792E-01
 10.147  0.245E+00  0.816E-01  0.816E-01  0.816E-01
 10.157  0.252E+00  0.840E-01  0.840E-01  0.840E-01
 10.167  0.259E+00  0.864E-01  0.864E-01  0.864E-01
 10.177  0.266E+00  0.887E-01  0.887E-01  0.887E-01
 10.187  0.273E+00  0.908E-01  0.908E-01  0.908E-01
 10.197  0.278E+00  0.928E-01  0.928E-01  0.928E-01
 10.207  0.284E+00  0.945E-01  0.945E-01  0.945E-01
 10.217  0.288E+00  0.960E-01  0.960E-01  0.960E-01
 10.227  0.291E+00  0.971E-01  0.971E-01  0.971E-01
 10.237  0.293E+00  0.978E-01  0.978E-01  0.978E-01
 10.247  0.295E+00  0.982E-01  0.982E-01  0.982E-01
 10.257  0.295E+00  0.983E-01  0.983E-01  0.983E-01
 10.267  0.294E+00  0.980E-01  0.980E-01  0.980E-01
 10.277  0.292E+00  0.974E-01  0.974E-01  0.974E-01
 10.287  0.290E+00  0.965E-01  0.965E-01  0.965E-01
 10.297  0.286E+00  0.954E-01  0.954E-01  0.954E-01
 10.307  0.283E+00  0.942E-01  0.942E-01  0.942E-01
 10.317  0.278E+00  0.928E-01  0.928E-01  0.928E-01
 10.327  0.274E+00  0.913E-01  0.913E-01  0.913E-01
 10.337  0.270E+00  0.899E-01  0.899E-01  0.899E-01
 10.347  0.265E+00  0.885E-01  0.885E-01  0.885E-01
 10.357  0.262E+00  0.872E-01  0.872E-01  0.872E-01
 10.367  0.258E+00  0.860E-01  0.860E-01  0.860E-01
 10.377  0.255E+00  0.851E-01  0.851E-01  0.851E-01
 10.387  0.253E+00  0.843E-01  0.843E-01  0.843E-01
 10.397  0.251E+00  0.838E-01  0.838E-01  0.838E-01
 10.407  0.251E+00  0.835E-01  0.835E-01  0.835E-01
 10.417  0.251E+00  0.835E-01  0.835E-01  0.835E-01
 10.427  0.251E+00  0.837E-01  0.837E-01  0.837E-01
 10.437  0.253E+00  0.842E-01  0.842E-01  0.842E-01
 10.447  0.254E+00  0.848E-01  0.848E-01  0.848E-01
 10.457  0.257E+00  0.856E-01  0.856E-01  0.856E-01
 10.467  0.260E+00  0.866E-01  0.866E-01  0.866E-01
 10.477  0.263E+00  0.876E-01  0.876E-01  0.876E-01
 10.487  0.266E+00  0.887E-01  0.887E-01  0.887E-01
 10.497  0.269E+00  0.898E-01  0.898E-01  0.898E-01
 10.507  0.273E+00  0.909E-01  0.909E-01  0.909E-01
 10.517  0.276E+00  0.919E-01  0.919E-01  0.919E-01
 10.527  0.278E+00  0.928E-01  0.928E-01  0.928E-01
 10.537  0.281E+00  0.936E-01  0.936E-01  0.936E-01
 10.547  0.283E+00  0.943E-01  0.943E-01  0.943E-01
 10.557  0.284E+00  0.948E-01  0.948E-01  0.948E-01
 10.567  0.285E+00  0.951E-01  0.951E-01  0.951E-01
 10.577  0.286E+00  0.952E-01  0.952E-01  0.952E-01
 10.587  0.286E+00  0.952E-01  0.952E-01  0.952E-01
 10.597  0.285E+00  0.951E-01  0.951E-01  0.951E-01
 10.607  0.284E+00  0.947E-01  0.947E-01  0.947E-01
 10.617  0.283E+00  0.942E-01  0.942E-01  0.942E-01
 10.627  0.281E+00  0.936E-01  0.936E-01  0.936E-01
 10.637  0.279E+00  0.929E-01  0.929E-01  0.929E-01
 10.647  0.276E+00  0.921E-01  0.921E-01  0.921E-01
 10.657  0.274E+00  0.912E-01  0.912E-01  0.912E-01
 10.667  0.271E+00  0.903E-01  0.903E-01  0.903E-01
 10.677  0.268E+00  0.893E-01  0.893E-01  0.893E-01
 10.687  0.265E+00  0.883E-01  0.883E-01  0.883E-01
 10.697  0.262E+00  0.873E-01  0.873E-01  0.873E-01
 10.707  0.259E+00  0.863E-01  0.863E-01  0.863E-01
 10.717  0.256E+00  0.854E-01  0.854E-01  0.854E-01
 10.727  0.253E+00  0.844E-01  0.844E-01  0.844E-01
 10.737  0.251E+00  0.836E-01  0.836E-01  0.836E-01
 10.747  0.248E+00  0.828E-01  0.828E-01  0.828E-01
 10.757  0.246E+00  0.820E-01  0.820E-01  0.820E-01
 10.767  0.244E+00  0.814E-01  0.814E-01  0.814E-01
 10.777  0.242E+00  0.808E-01  0.808E-01  0.808E-01
 10.787  0.241E+00  0.803E-01  0.803E-01  0.803E-01
 10.797  0.240E+00  0.799E-01  0.799E-01  0.799E-01
 10.807  0.239E+00  0.796E-01  0.796E-01  0.796E-01
 10.817  0.238E+00  0.794E-01  0.794E-01  0.794E-01
 10.827  0.238E+00  0.793E-01  0.793E-01  0.793E-01
 10.837  0.238E+00  0.793E-01  0.793E-01  0.793E-01
 10.847  0.238E+00  0.794E-01  0.794E-01  0.794E-01
 10.857  0.239E+00  0.795E-01  0.795E-01  0.795E-01
 10.867  0.239E+00  0.797E-01  0.797E-01  0.797E-01
 10.877  0.240E+00  0.800E-01  0.800E-01  0.800E-01
 10.887  0.241E+00  0.803E-01  0.803E-01  0.803E-01
 10.897  0.242E+00  0.807E-01  0.807E-01  0.807E-01
 10.907  0.243E+00  0.811E-01  0.811E-01  0.811E-01
 10.917  0.244E+00  0.814E-01  0.814E-01  0.814E-01
 10.927  0.245E+00  0.818E-01  0.818E-01  0.818E-01
 10.937  0.246E+00  0.821E-01  0.821E-01  0.821E-01
 10.947  0.247E+00  0.824E-01  0.824E-01  0.824E-01
 10.957  0.248E+00  0.826E-01  0.826E-01  0.826E-01
 10.967  0.248E+00  0.828E-01  0.828E-01  0.828E-01
 10.977  0.249E+00  0.829E-01  0.829E-01  0.829E-01
 10.987  0.249E+00  0.829E-01  0.829E-01  0.829E-01
 10.997  0.248E+00  0.828E-01  0.828E-01  0.828E-01
 11.007  0.248E+00  0.826E-01  0.826E-01  0.826E-01
 11.017  0.247E+00  0.824E-01  0.824E-01  0.824E-01
 11.027  0.246E+00  0.820E-01  0.820E-01  0.820E-01
 11.037  0.245E+00  0.816E-01  0.816E-01  0.816E-01
 11.047  0.244E+00  0.812E-01  0.812E-01  0.812E-01
 11.057  0.242E+00  0.807E-01  0.807E-01  0.807E-01
 11.067  0.240E+00  0.801E-01  0.801E-01  0.801E-01
 11.077  0.239E+00  0.796E-01  0.796E-01  0.796E-01
 11.087  0.237E+00  0.791E-01  0.791E-01  0.791E-01
 11.097  0.236E+00  0.785E-01  0.785E-01  0.785E-01
 11.107  0.234E+00  0.781E-01  0.781E-01  0.781E-01
 11.117  0.233E+00  0.776E-01  0.776E-01  0.776E-01
 11.127  0.232E+00  0.772E-01  0.772E-01  0.772E-01
 11.137  0.231E+00  0.769E-01  0.769E-01  0.769E-01
 11.147  0.230E+00  0.766E-01  0.766E-01  0.766E-01
 11.157  0.229E+00  0.763E-01  0.763E-01  0.763E-01
 11.167  0.228E+00  0.761E-01  0.761E-01  0.761E-01
 11.177  0.228E+00  0.759E-01  0.759E-01  0.759E-01
 11.187  0.227E+00  0.757E-01  0.757E-01  0.757E-01
 11.197  0.226E+00  0.755E-01  0.755E-01  0.755E-01
 11.207  0.226E+00  0.753E-01  0.753E-01  0.753E-01
 11.217  0.225E+00  0.750E-01  0.750E-01  0.750E-01
 11.227  0.224E+00  0.747E-01  0.747E-01  0.747E-01
 11.237  0.223E+00  0.743E-01  0.743E-01  0.743E-01
 11.247  0.222E+00  0.739E-01  0.739E-01  0.739E-01
 11.257  0.220E+00  0.734E-01  0.734E-01  0.734E-01
 11.267  0.219E+00  0.729E-01  0.729E-01  0.729E-01
 11.277  0.217E+00  0.724E-01  0.724E-01  0.724E-01
 11.287  0.215E+00  0.718E-01  0.718E-01  0.718E-01
 11.297  0.213E+00  0.712E-01  0.712E-01  0.712E-01
 11.307  0.212E+00  0.706E-01  0.706E-01  0.706E-01
 11.317  0.210E+00  0.700E-01  0.700E-01  0.700E-01
 11.327  0.208E+00  0.695E-01  0.695E-01  0.695E-01
 11.337  0.207E+00  0.690E-01  0.690E-01  0.690E-01
 11.347  0.206E+00  0.687E-01  0.687E-01  0.687E-01
 11.357  0.205E+00  0.684E-01  0.684E-01  0.684E-01
 11.367  0.205E+00  0.683E-01  0.683E-01  0.683E-01
 11.377  0.205E+00  0.683E-01  0.683E-01  0.683E-01
 11.387  0.205E+00  0.684E-01  0.684E-01  0.684E-01
 11.397  0.206E+00  0.687E-01  0.687E-01  0.687E-01
 11.407  0.207E+00  0.691E-01  0.691E-01  0.691E-01
 11.417  0.209E+00  0.696E-01  0.696E-01  0.696E-01
 11.427  0.211E+00  0.703E-01  0.703E-01  0.703E-01
 11.437  0.213E+00  0.710E-01  0.710E-01  0.710E-01
 11.447  0.215E+00  0.718E-01  0.718E-01  0.718E-01
 11.457  0.218E+00  0.726E-01  0.726E-01  0.726E-01
 11.467  0.221E+00  0.735E-01  0.735E-01  0.735E-01
 11.477  0.223E+00  0.744E-01  0.744E-01  0.744E-01
 11.487  0.226E+00  0.752E-01  0.752E-01  0.752E-01
 11.497  0.228E+00  0.759E-01  0.759E-01  0.759E-01
 11.507  0.230E+00  0.766E-01  0.766E-01  0.766E-01
 11.517  0.231E+00  0.771E-01  0.771E-01  0.771E-01
 11.527  0.233E+00  0.775E-01  0.775E-01  0.775E-01
 11.537  0.233E+00  0.778E-01  0.778E-01  0.778E-01
 11.547  0.234E+00  0.779E-01  0.779E-01  0.779E-01
 11.557  0.233E+00  0.778E-01  0.778E-01  0.778E-01
 11.567  0.233E+00  0.776E-01  0.776E-01  0.776E-01
 11.577  0.232E+00  0.772E-01  0.772E-01  0.772E-01
 11.587  0.230E+00  0.766E-01  0.766E-01  0.766E-01
 11.597  0.228E+00  0.759E-01  0.759E-01  0.759E-01
 11.607  0.225E+00  0.750E-01  0.750E-01  0.750E-01
 11.617  0.222E+00  0.741E-01  0.741E-01  0.741E-01
 11.627  0.219E+00  0.730E-01  0.730E-01  0.730E-01
 11.637  0.215E+00  0.718E-01  0.718E-01  0.718E-01
 11.647  0.212E+00  0.706E-01  0.706E-01  0.706E-01
 11.657  0.208E+00  0.694E-01  0.694E-01  0.694E-01
 11.667  0.204E+00  0.681E-01  0.681E-01  0.681E-01
 11.677  0.200E+00  0.668E-01  0.668E-01  0.668E-01
 11.687  0.197E+00  0.656E-01  0.656E-01  0.656E-01
 11.697  0.193E+00  0.644E-01  0.644E-01  0.644E-01
 11.707  0.190E+00  0.632E-01  0.632E-01  0.632E-01
 11.717  0.186E+00  0.622E-01  0.622E-01  0.622E-01
 11.727  0.184E+00  0.612E-01  0.612E-01  0.612E-01
 11.737  0.181E+00  0.603E-01  0.603E-01  0.603E-01
 11.747  0.178E+00  0.595E-01  0.595E-01  0.595E-01
 11.757  0.176E+00  0.588E-01  0.588E-01  0.588E-01
 11.767  0.174E+00  0.581E-01  0.581E-01  0.581E-01
 11.777  0.173E+00  0.576E-01  0.576E-01  0.576E-01
 11.787  0.171E+00  0.571E-01  0.571E-01  0.571E-01
 11.797  0.170E+00  0.567E-01  0.567E-01  0.567E-01
 11.807  0.169E+00  0.564E-01  0.564E-01  0.564E-01
 11.817  0.168E+00  0.560E-01  0.560E-01  0.560E-01
 11.827  0.167E+00  0.557E-01  0.557E-01  0.557E-01
 11.837  0.166E+00  0.554E-01  0.554E-01  0.554E-01
 11.847  0.166E+00  0.552E-01  0.552E-01  0.552E-01
 11.857  0.165E+00  0.549E-01  0.549E-01  0.549E-01
 11.867  0.164E+00  0.547E-01  0.547E-01  0.547E-01
 11.877  0.163E+00  0.545E-01  0.545E-01  0.545E-01
 11.887  0.163E+00  0.543E-01  0.543E-01  0.543E-01
 11.897  0.162E+00  0.541E-01  0.541E-01  0.541E-01
 11.907  0.162E+00  0.540E-01  0.540E-01  0.540E-01
 11.917  0.162E+00  0.540E-01  0.540E-01  0.540E-01
 11.927  0.162E+00  0.540E-01  0.540E-01  0.540E-01
 11.937  0.162E+00  0.541E-01  0.541E-01  0.541E-01
 11.947  0.163E+00  0.543E-01  0.543E-01  0.543E-01
 11.957  0.164E+00  0.545E-01  0.545E-01  0.545E-01
 11.967  0.165E+00  0.549E-01  0.549E-01  0.549E-01
 11.977  0.166E+00  0.553E-01  0.553E-01  0.553E-01
 11.987  0.168E+00  0.559E-01  0.559E-01  0.559E-01
 11.997  0.170E+00  0.565E-01  0.565E-01  0.565E-01
 12.007  0.172E+00  0.572E-01  0.572E-01  0.572E-01
 12.017  0.174E+00  0.580E-01  0.580E-01  0.580E-01
 12.027  0.176E+00  0.588E-01  0.588E-01  0.588E-01
 12.037  0.179E+00  0.596E-01  0.596E-01  0.596E-01
 12.047  0.182E+00  0.605E-01  0.605E-01  0.605E-01
 12.057  0.184E+00  0.614E-01  0.614E-01  0.614E-01
 12.067  0.187E+00  0.622E-01  0.622E-01  0.622E-01
 12.077  0.189E+00  0.631E-01  0.631E-01  0.631E-01
 12.087  0.192E+00  0.639E-01  0.639E-01  0.639E-01
 12.097  0.194E+00  0.646E-01  0.646E-01  0.646E-01
 12.107  0.196E+00  0.652E-01  0.652E-01  0.652E-01
 12.117  0.197E+00  0.658E-01  0.658E-01  0.658E-01
 12.127  0.199E+00  0.663E-01  0.663E-01  0.663E-01
 12.137  0.200E+00  0.667E-01  0.667E-01  0.667E-01
 12.147  0.201E+00  0.670E-01  0.670E-01  0.670E-01
 12.157  0.202E+00  0.672E-01  0.672E-01  0.672E-01
 12.167  0.202E+00  0.673E-01  0.673E-01  0.673E-01
 12.177  0.202E+00  0.673E-01  0.673E-01  0.673E-01
 12.187  0.202E+00  0.673E-01  0.673E-01  0.673E-01
 12.197  0.201E+00  0.671E-01  0.671E-01  0.671E-01
 12.207  0.200E+00  0.668E-01  0.668E-01  0.668E-01
 12.217  0.199E+00  0.665E-01  0.665E-01  0.665E-01
 12.227  0.198E+00  0.660E-01  0.660E-01  0.660E-01
 12.237  0.197E+00  0.655E-01  0.655E-01  0.655E-01
 12.247  0.195E+00  0.649E-01  0.649E-01  0.649E-01
 12.257  0.193E+00  0.643E-01  0.643E-01  0.643E-01
 12.267  0.191E+00  0.636E-01  0.636E-01  0.636E-01
 12.277  0.188E+00  0.628E-01  0.628E-01  0.628E-01
 12.287  0.186E+00  0.620E-01  0.620E-01  0.620E-01
 12.297  0.183E+00  0.611E-01  0.611E-01  0.611E-01
 12.307  0.181E+00  0.603E-01  0.603E-01  0.603E-01
 12.317  0.178E+00  0.594E-01  0.594E-01  0.594E-01
 12.327  0.175E+00  0.584E-01  0.584E-01  0.584E-01
 12.337  0.173E+00  0.575E-01  0.575E-01  0.575E-01
 12.347  0.170E+00  0.567E-01  0.567E-01  0.567E-01
 12.357  0.167E+00  0.558E-01  0.558E-01  0.558E-01
 12.367  0.165E+00  0.550E-01  0.550E-01  0.550E-01
 12.377  0.162E+00  0.542E-01  0.542E-01  0.542E-01
 12.387  0.160E+00  0.534E-01  0.534E-01  0.534E-01
 12.397  0.158E+00  0.527E-01  0.527E-01  0.527E-01
 12.407  0.156E+00  0.521E-01  0.521E-01  0.521E-01
 12.417  0.154E+00  0.515E-01  0.515E-01  0.515E-01
 12.427  0.153E+00  0.509E-01  0.509E-01  0.509E-01
 12.437  0.151E+00  0.504E-01  0.504E-01  0.504E-01
 12.447  0.150E+00  0.499E-01  0.499E-01  0.499E-01
 12.457  0.148E+00  0.495E-01  0.495E-01  0.495E-01
 12.467  0.147E+00  0.491E-01  0.491E-01  0.491E-01
 12.477  0.146E+00  0.487E-01  0.487E-01  0.487E-01
 12.487  0.145E+00  0.483E-01  0.483E-01  0.483E-01
 12.497  0.144E+00  0.479E-01  0.479E-01  0.479E-01
 12.507  0.142E+00  0.475E-01  0.475E-01  0.475E-01
 12.517  0.141E+00  0.471E-01  0.471E-01  0.471E-01
 12.527  0.140E+00  0.467E-01  0.467E-01  0.467E-01
 12.537  0.139E+00  0.463E-01  0.463E-01  0.463E-01
 12.547  0.138E+00  0.460E-01  0.460E-01  0.460E-01
 12.557  0.137E+00  0.456E-01  0.456E-01  0.456E-01
 12.567  0.136E+00  0.453E-01  0.453E-01  0.453E-01
 12.577  0.135E+00  0.451E-01  0.451E-01  0.451E-01
 12.587  0.135E+00  0.449E-01  0.449E-01  0.449E-01
 12.597  0.134E+00  0.447E-01  0.447E-01  0.447E-01
 12.607  0.134E+00  0.447E-01  0.447E-01  0.447E-01
 12.617  0.134E+00  0.447E-01  0.447E-01  0.447E-01
 12.627  0.135E+00  0.449E-01  0.449E-01  0.449E-01
 12.637  0.135E+00  0.451E-01  0.451E-01  0.451E-01
 12.647  0.136E+00  0.454E-01  0.454E-01  0.454E-01
 12.657  0.137E+00  0.458E-01  0.458E-01  0.458E-01
 12.667  0.139E+00  0.463E-01  0.463E-01  0.463E-01
 12.677  0.141E+00  0.469E-01  0.469E-01  0.469E-01
 12.687  0.143E+00  0.475E-01  0.475E-01  0.475E-01
 12.697  0.145E+00  0.482E-01  0.482E-01  0.482E-01
 12.707  0.147E+00  0.490E-01  0.490E-01  0.490E-01
 12.717  0.149E+00  0.497E-01  0.497E-01  0.497E-01
 12.727  0.151E+00  0.504E-01  0.504E-01  0.504E-01
 12.737  0.153E+00  0.511E-01  0.511E-01  0.511E-01
 12.747  0.155E+00  0.518E-01  0.518E-01  0.518E-01
 12.757  0.157E+00  0.524E-01  0.524E-01  0.524E-01
 12.767  0.159E+00  0.530E-01  0.530E-01  0.530E-01
 12.777  0.160E+00  0.535E-01  0.535E-01  0.535E-01
 12.787  0.162E+00  0.539E-01  0.539E-01  0.539E-01
 12.797  0.163E+00  0.542E-01  0.542E-01  0.542E-01
 12.807  0.164E+00  0.545E-01  0.545E-01  0.545E-01
 12.817  0.164E+00  0.548E-01  0.548E-01  0.548E-01
 12.827  0.165E+00  0.549E-01  0.549E-01  0.549E-01
 12.837  0.165E+00  0.551E-01  0.551E-01  0.551E-01
 12.847  0.166E+00  0.552E-01  0.552E-01  0.552E-01
 12.857  0.166E+00  0.554E-01  0.554E-01  0.554E-01
 12.867  0.166E+00  0.555E-01  0.555E-01  0.555E-01
 12.877  0.167E+00  0.556E-01  0.556E-01  0.556E-01
 12.887  0.167E+00  0.558E-01  0.558E-01  0.558E-01
 12.897  0.168E+00  0.560E-01  0.560E-01  0.560E-01
 12.907  0.169E+00  0.562E-01  0.562E-01  0.562E-01
 12.917  0.169E+00  0.565E-01  0.565E-01  0.565E-01
 12.927  0.170E+00  0.567E-01  0.567E-01  0.567E-01
 12.937  0.171E+00  0.570E-01  0.570E-01  0.570E-01
 12.947  0.172E+00  0.573E-01  0.573E-01  0.573E-01
 12.957  0.173E+00  0.575E-01  0.575E-01  0.575E-01
 12.967  0.173E+00  0.577E-01  0.577E-01  0.577E-01
 12.977  0.173E+00  0.578E-01  0.578E-01  0.578E-01
 12.987  0.173E+00  0.578E-01  0.578E-01  0.578E-01
 12.997  0.173E+00  0.577E-01  0.577E-01  0.577E-01
 13.007  0.172E+00  0.574E-01  0.574E-01  0.574E-01
 13.017  0.171E+00  0.570E-01  0.570E-01  0.570E-01
 13.027  0.169E+00  0.563E-01  0.563E-01  0.563E-01
 13.037  0.166E+00  0.555E-01  0.555E-01  0.555E-01
 13.047  0.163E+00  0.544E-01  0.544E-01  0.544E-01
 13.057  0.159E+00  0.531E-01  0.531E-01  0.531E-01
 13.067  0.155E+00  0.516E-01  0.516E-01  0.516E-01
 13.077  0.149E+00  0.498E-01  0.498E-01  0.498E-01
 13.087  0.144E+00  0.479E-01  0.479E-01  0.479E-01
 13.097  0.137E+00  0.458E-01  0.458E-01  0.458E-01
 13.107  0.131E+00  0.435E-01  0.435E-01  0.435E-01
 13.117  0.123E+00  0.412E-01  0.412E-01  0.412E-01
 13.127  0.116E+00  0.387E-01  0.387E-01  0.387E-01
 13.137  0.109E+00  0.362E-01  0.362E-01  0.362E-01
 13.147  0.101E+00  0.337E-01  0.337E-01  0.337E-01
 13.157  0.939E-01  0.313E-01  0.313E-01  0.313E-01
 13.167  0.868E-01  0.289E-01  0.289E-01  0.289E-01
 13.177  0.800E-01  0.267E-01  0.267E-01  0.267E-01
 13.187  0.736E-01  0.245E-01  0.245E-01  0.245E-01
 13.197  0.677E-01  0.226E-01  0.226E-01  0.226E-01
 13.207  0.624E-01  0.208E-01  0.208E-01  0.208E-01
 13.217  0.576E-01  0.192E-01  0.192E-01  0.192E-01
 13.227  0.535E-01  0.178E-01  0.178E-01  0.178E-01
 13.237  0.500E-01  0.167E-01  0.167E-01  0.167E-01
 13.247  0.470E-01  0.157E-01  0.157E-01  0.157E-01
 13.257  0.447E-01  0.149E-01  0.149E-01  0.149E-01
 13.267  0.429E-01  0.143E-01  0.143E-01  0.143E-01
 13.277  0.417E-01  0.139E-01  0.139E-01  0.139E-01
 13.287  0.409E-01  0.136E-01  0.136E-01  0.136E-01
 13.297  0.405E-01  0.135E-01  0.135E-01  0.135E-01
 13.307  0.405E-01  0.135E-01  0.135E-01  0.135E-01
 13.317  0.408E-01  0.136E-01  0.136E-01  0.136E-01
 13.327  0.413E-01  0.138E-01  0.138E-01  0.138E-01
 13.337  0.421E-01  0.140E-01  0.140E-01  0.140E-01
 13.347  0.431E-01  0.144E-01  0.144E-01  0.144E-01
 13.357  0.441E-01  0.147E-01  0.147E-01  0.147E-01
 13.367  0.453E-01  0.151E-01  0.151E-01  0.151E-01
 13.377  0.466E-01  0.155E-01  0.155E-01  0.155E-01
 13.387  0.479E-01  0.160E-01  0.160E-01  0.160E-01
 13.397  0.492E-01  0.164E-01  0.164E-01  0.164E-01
 13.407  0.505E-01  0.168E-01  0.168E-01  0.168E-01
 13.417  0.518E-01  0.173E-01  0.173E-01  0.173E-01
 13.427  0.530E-01  0.177E-01  0.177E-01  0.177E-01
 13.437  0.542E-01  0.181E-01  0.181E-01  0.181E-01
 13.447  0.554E-01  0.185E-01  0.185E-01  0.185E-01
 13.457  0.564E-01  0.188E-01  0.188E-01  0.188E-01
 13.467  0.574E-01  0.191E-01  0.191E-01  0.191E-01
 13.477  0.582E-01  0.194E-01  0.194E-01  0.194E-01
 13.487  0.589E-01  0.196E-01  0.196E-01  0.196E-01
 13.497  0.595E-01  0.198E-01  0.198E-01  0.198E-01
 13.507  0.600E-01  0.200E-01  0.200E-01  0.200E-01
 13.517  0.604E-01  0.201E-01  0.201E-01  0.201E-01
 13.527  0.606E-01  0.202E-01  0.202E-01  0.202E-01
 13.537  0.608E-01  0.203E-01  0.203E-01  0.203E-01
 13.547  0.609E-01  0.203E-01  0.203E-01  0.203E-01
 13.557  0.609E-01  0.203E-01  0.203E-01  0.203E-01
 13.567  0.609E-01  0.203E-01  0.203E-01  0.203E-01
 13.577  0.609E-01  0.203E-01  0.203E-01  0.203E-01
 13.587  0.610E-01  0.203E-01  0.203E-01  0.203E-01
 13.597  0.611E-01  0.204E-01  0.204E-01  0.204E-01
 13.607  0.614E-01  0.205E-01  0.205E-01  0.205E-01
 13.617  0.617E-01  0.206E-01  0.206E-01  0.206E-01
 13.627  0.622E-01  0.207E-01  0.207E-01  0.207E-01
 13.637  0.629E-01  0.210E-01  0.210E-01  0.210E-01
 13.647  0.636E-01  0.212E-01  0.212E-01  0.212E-01
 13.657  0.646E-01  0.215E-01  0.215E-01  0.215E-01
 13.667  0.656E-01  0.219E-01  0.219E-01  0.219E-01
 13.677  0.668E-01  0.223E-01  0.223E-01  0.223E-01
 13.687  0.680E-01  0.227E-01  0.227E-01  0.227E-01
 13.697  0.693E-01  0.231E-01  0.231E-01  0.231E-01
 13.707  0.705E-01  0.235E-01  0.235E-01  0.235E-01
 13.717  0.716E-01  0.239E-01  0.239E-01  0.239E-01
 13.727  0.727E-01  0.242E-01  0.242E-01  0.242E-01
 13.737  0.735E-01  0.245E-01  0.245E-01  0.245E-01
 13.747  0.741E-01  0.247E-01  0.247E-01  0.247E-01
 13.757  0.744E-01  0.248E-01  0.248E-01  0.248E-01
 13.767  0.745E-01  0.248E-01  0.248E-01  0.248E-01
 13.777  0.742E-01  0.247E-01  0.247E-01  0.247E-01
 13.787  0.735E-01  0.245E-01  0.245E-01  0.245E-01
 13.797  0.725E-01  0.242E-01  0.242E-01  0.242E-01
 13.807  0.712E-01  0.237E-01  0.237E-01  0.237E-01
 13.817  0.695E-01  0.232E-01  0.232E-01  0.232E-01
 13.827  0.675E-01  0.225E-01  0.225E-01  0.225E-01
 13.837  0.652E-01  0.217E-01  0.217E-01  0.217E-01
 13.847  0.627E-01  0.209E-01  0.209E-01  0.209E-01
 13.857  0.600E-01  0.200E-01  0.200E-01  0.200E-01
 13.867  0.572E-01  0.191E-01  0.191E-01  0.191E-01
 13.877  0.542E-01  0.181E-01  0.181E-01  0.181E-01
 13.887  0.512E-01  0.171E-01  0.171E-01  0.171E-01
 13.897  0.482E-01  0.161E-01  0.161E-01  0.161E-01
 13.907  0.453E-01  0.151E-01  0.151E-01  0.151E-01
 13.917  0.424E-01  0.141E-01  0.141E-01  0.141E-01
 13.927  0.397E-01  0.132E-01  0.132E-01  0.132E-01
 13.937  0.371E-01  0.124E-01  0.124E-01  0.124E-01
 13.947  0.347E-01  0.116E-01  0.116E-01  0.116E-01
 13.957  0.325E-01  0.108E-01  0.108E-01  0.108E-01
 13.967  0.305E-01  0.102E-01  0.102E-01  0.102E-01
 13.977  0.287E-01  0.956E-02  0.956E-02  0.956E-02
 13.987  0.271E-01  0.904E-02  0.904E-02  0.904E-02
 13.997  0.257E-01  0.858E-02  0.858E-02  0.858E-02
 14.007  0.246E-01  0.819E-02  0.819E-02  0.819E-02
 14.017  0.236E-01  0.785E-02  0.785E-02  0.785E-02
 14.027  0.227E-01  0.757E-02  0.757E-02  0.757E-02
 14.037  0.220E-01  0.733E-02  0.733E-02  0.733E-02
 14.047  0.214E-01  0.713E-02  0.713E-02  0.713E-02
 14.057  0.209E-01  0.696E-02  0.696E-02  0.696E-02
 14.067  0.204E-01  0.681E-02  0.681E-02  0.681E-02
 14.077  0.200E-01  0.667E-02  0.667E-02  0.667E-02
 14.087  0.196E-01  0.655E-02  0.655E-02  0.655E-02
 14.097  0.193E-01  0.642E-02  0.642E-02  0.642E-02
 14.107  0.189E-01  0.630E-02  0.630E-02  0.630E-02
 14.117  0.185E-01  0.617E-02  0.617E-02  0.617E-02
 14.127  0.181E-01  0.605E-02  0.605E-02  0.605E-02
 14.137  0.178E-01  0.592E-02  0.592E-02  0.592E-02
 14.147  0.174E-01  0.579E-02  0.579E-02  0.579E-02
 14.157  0.170E-01  0.567E-02  0.567E-02  0.567E-02
 14.167  0.167E-01  0.556E-02  0.556E-02  0.556E-02
 14.177  0.164E-01  0.546E-02  0.546E-02  0.546E-02
 14.187  0.162E-01  0.539E-02  0.539E-02  0.539E-02
 14.197  0.161E-01  0.536E-02  0.536E-02  0.536E-02
 14.207  0.161E-01  0.536E-02  0.536E-02  0.536E-02
 14.217  0.162E-01  0.541E-02  0.541E-02  0.541E-02
 14.227  0.166E-01  0.552E-02  0.552E-02  0.552E-02
 14.237  0.170E-01  0.568E-02  0.568E-02  0.568E-02
 14.247  0.177E-01  0.591E-02  0.591E-02  0.591E-02
 14.257  0.186E-01  0.620E-02  0.620E-02  0.620E-02
 14.267  0.197E-01  0.656E-02  0.656E-02  0.656E-02
 14.277  0.209E-01  0.698E-02  0.698E-02  0.698E-02
 14.287  0.224E-01  0.746E-02  0.746E-02  0.746E-02
 14.297  0.240E-01  0.799E-02  0.799E-02  0.799E-02
 14.307  0.257E-01  0.858E-02  0.858E-02  0.858E-02
 14.317  0.276E-01  0.920E-02  0.920E-02  0.920E-02
 14.327  0.296E-01  0.985E-02  0.985E-02  0.985E-02
 14.337  0.316E-01  0.105E-01  0.105E-01  0.105E-01
 14.347  0.336E-01  0.112E-01  0.112E-01  0.112E-01
 14.357  0.357E-01  0.119E-01  0.119E-01  0.119E-01
 14.367  0.377E-01  0.126E-01  0.126E-01  0.126E-01
 14.377  0.397E-01  0.132E-01  0.132E-01  0.132E-01
 14.387  0.416E-01  0.139E-01  0.139E-01  0.139E-01
 14.397  0.434E-01  0.145E-01  0.145E-01  0.145E-01
 14.407  0.451E-01  0.150E-01  0.150E-01  0.150E-01
 14.417  0.466E-01  0.155E-01  0.155E-01  0.155E-01
 14.427  0.480E-01  0.160E-01  0.160E-01  0.160E-01
 14.437  0.492E-01  0.164E-01  0.164E-01  0.164E-01
 14.447  0.502E-01  0.167E-01  0.167E-01  0.167E-01
 14.457  0.511E-01  0.170E-01  0.170E-01  0.170E-01
 14.467  0.517E-01  0.172E-01  0.172E-01  0.172E-01
 14.477  0.522E-01  0.174E-01  0.174E-01  0.174E-01
 14.487  0.524E-01  0.175E-01  0.175E-01  0.175E-01
 14.497  0.524E-01  0.175E-01  0.175E-01  0.175E-01
 14.507  0.522E-01  0.174E-01  0.174E-01  0.174E-01
 14.517  0.517E-01  0.172E-01  0.172E-01  0.172E-01
 14.527  0.510E-01  0.170E-01  0.170E-01  0.170E-01
 14.537  0.500E-01  0.167E-01  0.167E-01  0.167E-01
 14.547  0.488E-01  0.163E-01  0.163E-01  0.163E-01
 14.557  0.474E-01  0.158E-01  0.158E-01  0.158E-01
 14.567  0.457E-01  0.152E-01  0.152E-01  0.152E-01
 14.577  0.439E-01  0.146E-01  0.146E-01  0.146E-01
 14.587  0.418E-01  0.139E-01  0.139E-01  0.139E-01
 14.597  0.395E-01  0.132E-01  0.132E-01  0.132E-01
 14.607  0.372E-01  0.124E-01  0.124E-01  0.124E-01
 14.617  0.347E-01  0.116E-01  0.116E-01  0.116E-01
 14.627  0.321E-01  0.107E-01  0.107E-01  0.107E-01
 14.637  0.295E-01  0.983E-02  0.983E-02  0.983E-02
 14.647  0.269E-01  0.896E-02  0.896E-02  0.896E-02
 14.657  0.243E-01  0.811E-02  0.811E-02  0.811E-02
 14.667  0.218E-01  0.728E-02  0.728E-02  0.728E-02
 14.677  0.194E-01  0.648E-02  0.648E-02  0.648E-02
 14.687  0.172E-01  0.573E-02  0.573E-02  0.573E-02
 14.697  0.151E-01  0.502E-02  0.502E-02  0.502E-02
 14.707  0.131E-01  0.437E-02  0.437E-02  0.437E-02
 14.717  0.114E-01  0.379E-02  0.379E-02  0.379E-02
 14.727  0.979E-02  0.326E-02  0.326E-02  0.326E-02
 14.737  0.842E-02  0.281E-02  0.281E-02  0.281E-02
 14.747  0.724E-02  0.241E-02  0.241E-02  0.241E-02
 14.757  0.625E-02  0.208E-02  0.208E-02  0.208E-02
 14.767  0.545E-02  0.182E-02  0.182E-02  0.182E-02
 14.777  0.483E-02  0.161E-02  0.161E-02  0.161E-02
 14.787  0.437E-02  0.146E-02  0.146E-02  0.146E-02
 14.797  0.407E-02  0.136E-02  0.136E-02  0.136E-02
 14.807  0.392E-02  0.131E-02  0.131E-02  0.131E-02
 14.817  0.389E-02  0.130E-02  0.130E-02  0.130E-02
 14.827  0.398E-02  0.133E-02  0.133E-02  0.133E-02
 14.837  0.418E-02  0.139E-02  0.139E-02  0.139E-02
 14.847  0.448E-02  0.149E-02  0.149E-02  0.149E-02
 14.857  0.486E-02  0.162E-02  0.162E-02  0.162E-02
 14.867  0.531E-02  0.177E-02  0.177E-02  0.177E-02
 14.877  0.582E-02  0.194E-02  0.194E-02  0.194E-02
 14.887  0.639E-02  0.213E-02  0.213E-02  0.213E-02
 14.897  0.700E-02  0.233E-02  0.233E-02  0.233E-02
 14.907  0.765E-02  0.255E-02  0.255E-02  0.255E-02
 14.917  0.834E-02  0.278E-02  0.278E-02  0.278E-02
 14.927  0.905E-02  0.302E-02  0.302E-02  0.302E-02
 14.937  0.978E-02  0.326E-02  0.326E-02  0.326E-02
 14.947  0.105E-01  0.351E-02  0.351E-02  0.351E-02
 14.957  0.113E-01  0.377E-02  0.377E-02  0.377E-02
 14.967  0.121E-01  0.402E-02  0.402E-02  0.402E-02
 14.977  0.129E-01  0.429E-02  0.429E-02  0.429E-02
 14.987  0.136E-01  0.455E-02  0.455E-02  0.455E-02
 14.997  0.144E-01  0.481E-02  0.481E-02  0.481E-02
 15.007  0.152E-01  0.507E-02  0.507E-02  0.507E-02
 15.017  0.160E-01  0.533E-02  0.533E-02  0.533E-02
 15.027  0.167E-01  0.558E-02  0.558E-02  0.558E-02
 15.037  0.175E-01  0.582E-02  0.582E-02  0.582E-02
 15.047  0.181E-01  0.605E-02  0.605E-02  0.605E-02
 15.057  0.188E-01  0.626E-02  0.626E-02  0.626E-02
 15.067  0.193E-01  0.645E-02  0.645E-02  0.645E-02
 15.077  0.199E-01  0.662E-02  0.662E-02  0.662E-02
 15.087  0.203E-01  0.676E-02  0.676E-02  0.676E-02
 15.097  0.206E-01  0.688E-02  0.688E-02  0.688E-02
 15.107  0.209E-01  0.697E-02  0.697E-02  0.697E-02
 15.117  0.211E-01  0.703E-02  0.703E-02  0.703E-02
 15.127  0.212E-01  0.706E-02  0.706E-02  0.706E-02
 15.137  0.212E-01  0.706E-02  0.706E-02  0.706E-02
 15.147  0.211E-01  0.703E-02  0.703E-02  0.703E-02
 15.157  0.209E-01  0.697E-02  0.697E-02  0.697E-02
 15.167  0.207E-01  0.689E-02  0.689E-02  0.689E-02
 15.177  0.204E-01  0.680E-02  0.680E-02  0.680E-02
 15.187  0.200E-01  0.668E-02  0.668E-02  0.668E-02
 15.197  0.197E-01  0.655E-02  0.655E-02  0.655E-02
 15.207  0.192E-01  0.641E-02  0.641E-02  0.641E-02
 15.217  0.188E-01  0.626E-02  0.626E-02  0.626E-02
 15.227  0.183E-01  0.611E-02  0.611E-02  0.611E-02
 15.237  0.178E-01  0.594E-02  0.594E-02  0.594E-02
 15.247  0.173E-01  0.578E-02  0.578E-02  0.578E-02
 15.257  0.168E-01  0.561E-02  0.561E-02  0.561E-02
 15.267  0.163E-01  0.543E-02  0.543E-02  0.543E-02
 15.277  0.157E-01  0.525E-02  0.525E-02  0.525E-02
 15.287  0.152E-01  0.506E-02  0.506E-02  0.506E-02
 15.297  0.146E-01  0.487E-02  0.487E-02  0.487E-02
 15.307  0.140E-01  0.468E-02  0.468E-02  0.468E-02
 15.317  0.134E-01  0.447E-02  0.447E-02  0.447E-02
 15.327  0.128E-01  0.426E-02  0.426E-02  0.426E-02
 15.337  0.121E-01  0.405E-02  0.405E-02  0.405E-02
 15.347  0.115E-01  0.382E-02  0.382E-02  0.382E-02
 15.357  0.108E-01  0.360E-02  0.360E-02  0.360E-02
 15.367  0.101E-01  0.337E-02  0.337E-02  0.337E-02
 15.377  0.943E-02  0.314E-02  0.314E-02  0.314E-02
 15.387  0.876E-02  0.292E-02  0.292E-02  0.292E-02
 15.397  0.809E-02  0.270E-02  0.270E-02  0.270E-02
 15.407  0.744E-02  0.248E-02  0.248E-02  0.248E-02
 15.417  0.681E-02  0.227E-02  0.227E-02  0.227E-02
 15.427  0.621E-02  0.207E-02  0.207E-02  0.207E-02
 15.437  0.564E-02  0.188E-02  0.188E-02  0.188E-02
 15.447  0.511E-02  0.170E-02  0.170E-02  0.170E-02
 15.457  0.462E-02  0.154E-02  0.154E-02  0.154E-02
 15.467  0.417E-02  0.139E-02  0.139E-02  0.139E-02
 15.477  0.376E-02  0.125E-02  0.125E-02  0.125E-02
 15.487  0.341E-02  0.114E-02  0.114E-02  0.114E-02
 15.497  0.309E-02  0.103E-02  0.103E-02  0.103E-02
 15.507  0.282E-02  0.940E-03  0.940E-03  0.940E-03
 15.517  0.259E-02  0.862E-03  0.862E-03  0.862E-03
 15.527  0.239E-02  0.796E-03  0.796E-03  0.796E-03
 15.537  0.223E-02  0.742E-03  0.742E-03  0.742E-03
 15.547  0.209E-02  0.697E-03  0.697E-03  0.697E-03
 15.557  0.198E-02  0.660E-03  0.660E-03  0.660E-03
 15.567  0.189E-02  0.629E-03  0.629E-03  0.629E-03
 15.577  0.181E-02  0.604E-03  0.604E-03  0.604E-03
 15.587  0.175E-02  0.582E-03  0.582E-03  0.582E-03
 15.597  0.169E-02  0.562E-03  0.562E-03  0.562E-03
 15.607  0.163E-02  0.543E-03  0.543E-03  0.543E-03
 15.617  0.157E-02  0.525E-03  0.525E-03  0.525E-03
 15.627  0.151E-02  0.505E-03  0.505E-03  0.505E-03
 15.637  0.145E-02  0.484E-03  0.484E-03  0.484E-03
 15.647  0.138E-02  0.461E-03  0.461E-03  0.461E-03
 15.657  0.131E-02  0.437E-03  0.437E-03  0.437E-03
 15.667  0.123E-02  0.411E-03  0.411E-03  0.411E-03
 15.677  0.115E-02  0.383E-03  0.383E-03  0.383E-03
 15.687  0.106E-02  0.354E-03  0.354E-03  0.354E-03
 15.697  0.974E-03  0.325E-03  0.325E-03  0.325E-03
 15.707  0.884E-03  0.295E-03  0.295E-03  0.295E-03
 15.717  0.795E-03  0.265E-03  0.265E-03  0.265E-03
 15.727  0.708E-03  0.236E-03  0.236E-03  0.236E-03
 15.737  0.623E-03  0.208E-03  0.208E-03  0.208E-03
 15.747  0.544E-03  0.181E-03  0.181E-03  0.181E-03
 15.757  0.469E-03  0.156E-03  0.156E-03  0.156E-03
 15.767  0.401E-03  0.134E-03  0.134E-03  0.134E-03
 15.777  0.339E-03  0.113E-03  0.113E-03  0.113E-03
 15.787  0.283E-03  0.944E-04  0.944E-04  0.944E-04
 15.797  0.234E-03  0.781E-04  0.781E-04  0.781E-04
 15.807  0.192E-03  0.639E-04  0.639E-04  0.639E-04
 15.817  0.155E-03  0.517E-04  0.517E-04  0.517E-04
 15.827  0.124E-03  0.415E-04  0.415E-04  0.415E-04
 15.837  0.986E-04  0.329E-04  0.329E-04  0.329E-04
 15.847  0.773E-04  0.258E-04  0.258E-04  0.258E-04
 15.857  0.600E-04  0.200E-04  0.200E-04  0.200E-04
 15.867  0.460E-04  0.153E-04  0.153E-04  0.153E-04
 15.877  0.349E-04  0.116E-04  0.116E-04  0.116E-04
 15.887  0.262E-04  0.874E-05  0.874E-05  0.874E-05
 15.897  0.195E-04  0.650E-05  0.650E-05  0.650E-05
 15.907  0.143E-04  0.478E-05  0.478E-05  0.478E-05
 15.917  0.104E-04  0.347E-05  0.347E-05  0.347E-05
 15.927  0.749E-05  0.250E-05  0.250E-05  0.250E-05
 15.937  0.533E-05  0.178E-05  0.178E-05  0.178E-05
 15.947  0.375E-05  0.125E-05  0.125E-05  0.125E-05
 15.957  0.261E-05  0.871E-06  0.871E-06  0.871E-06
 15.967  0.180E-05  0.600E-06  0.600E-06  0.600E-06
 15.977  0.123E-05  0.409E-06  0.409E-06  0.409E-06
 15.987  0.827E-06  0.276E-06  0.276E-06  0.276E-06
 15.997  0.552E-06  0.184E-06  0.184E-06  0.184E-06
 16.007  0.364E-06  0.121E-06  0.121E-06  0.121E-06
 16.017  0.238E-06  0.792E-07  0.792E-07  0.792E-07
 16.027  0.153E-06  0.511E-07  0.511E-07  0.511E-07
