# E (eV)   ldos(E)   pdos(E)    pdos(E)    pdos(E)    pdos(E)    pdos(E)   
 -6.080  0.499E-04  0.339E-08  0.166E-04  0.166E-04  0.339E-08  0.166E-04
 -6.070  0.801E-04  0.549E-08  0.267E-04  0.267E-04  0.549E-08  0.267E-04
 -6.060  0.127E-03  0.880E-08  0.424E-04  0.424E-04  0.880E-08  0.424E-04
 -6.050  0.200E-03  0.140E-07  0.666E-04  0.666E-04  0.140E-07  0.666E-04
 -6.040  0.311E-03  0.219E-07  0.104E-03  0.104E-03  0.219E-07  0.104E-03
 -6.030  0.479E-03  0.340E-07  0.160E-03  0.160E-03  0.340E-07  0.160E-03
 -6.020  0.730E-03  0.523E-07  0.243E-03  0.243E-03  0.523E-07  0.243E-03
 -6.010  0.110E-02  0.796E-07  0.367E-03  0.367E-03  0.796E-07  0.367E-03
 -6.000  0.164E-02  0.120E-06  0.548E-03  0.548E-03  0.120E-06  0.548E-03
 -5.990  0.243E-02  0.179E-06  0.810E-03  0.810E-03  0.179E-06  0.810E-03
 -5.980  0.355E-02  0.263E-06  0.118E-02  0.118E-02  0.263E-06  0.118E-02
 -5.970  0.514E-02  0.384E-06  0.171E-02  0.171E-02  0.384E-06  0.171E-02
 -5.960  0.737E-02  0.555E-06  0.246E-02  0.246E-02  0.555E-06  0.246E-02
 -5.950  0.104E-01  0.794E-06  0.348E-02  0.348E-02  0.794E-06  0.348E-02
 -5.940  0.147E-01  0.112E-05  0.489E-02  0.489E-02  0.112E-05  0.489E-02
 -5.930  0.204E-01  0.157E-05  0.679E-02  0.679E-02  0.157E-05  0.679E-02
 -5.920  0.280E-01  0.218E-05  0.934E-02  0.934E-02  0.218E-05  0.934E-02
 -5.910  0.381E-01  0.299E-05  0.127E-01  0.127E-01  0.299E-05  0.127E-01
 -5.900  0.514E-01  0.406E-05  0.171E-01  0.171E-01  0.406E-05  0.171E-01
 -5.890  0.685E-01  0.545E-05  0.228E-01  0.228E-01  0.545E-05  0.228E-01
 -5.880  0.905E-01  0.725E-05  0.301E-01  0.301E-01  0.725E-05  0.301E-01
 -5.870  0.118E+00  0.954E-05  0.394E-01  0.394E-01  0.954E-05  0.394E-01
 -5.860  0.153E+00  0.124E-04  0.509E-01  0.509E-01  0.124E-04  0.509E-01
 -5.850  0.196E+00  0.160E-04  0.652E-01  0.652E-01  0.160E-04  0.652E-01
 -5.840  0.248E+00  0.204E-04  0.827E-01  0.827E-01  0.204E-04  0.827E-01
 -5.830  0.311E+00  0.258E-04  0.104E+00  0.104E+00  0.258E-04  0.104E+00
 -5.820  0.387E+00  0.323E-04  0.129E+00  0.129E+00  0.323E-04  0.129E+00
 -5.810  0.475E+00  0.400E-04  0.158E+00  0.158E+00  0.400E-04  0.158E+00
 -5.800  0.579E+00  0.490E-04  0.193E+00  0.193E+00  0.490E-04  0.193E+00
 -5.790  0.697E+00  0.594E-04  0.232E+00  0.232E+00  0.594E-04  0.232E+00
 -5.780  0.832E+00  0.714E-04  0.277E+00  0.277E+00  0.714E-04  0.277E+00
 -5.770  0.983E+00  0.849E-04  0.327E+00  0.327E+00  0.849E-04  0.327E+00
 -5.760  0.115E+01  0.999E-04  0.383E+00  0.383E+00  0.999E-04  0.383E+00
 -5.750  0.133E+01  0.116E-03  0.443E+00  0.443E+00  0.116E-03  0.443E+00
 -5.740  0.153E+01  0.134E-03  0.508E+00  0.508E+00  0.134E-03  0.508E+00
 -5.730  0.173E+01  0.153E-03  0.577E+00  0.577E+00  0.153E-03  0.577E+00
 -5.720  0.195E+01  0.174E-03  0.649E+00  0.649E+00  0.174E-03  0.649E+00
 -5.710  0.217E+01  0.194E-03  0.722E+00  0.722E+00  0.194E-03  0.722E+00
 -5.700  0.239E+01  0.216E-03  0.796E+00  0.796E+00  0.216E-03  0.796E+00
 -5.690  0.261E+01  0.237E-03  0.869E+00  0.869E+00  0.237E-03  0.869E+00
 -5.680  0.282E+01  0.258E-03  0.939E+00  0.939E+00  0.258E-03  0.939E+00
 -5.670  0.302E+01  0.278E-03  0.101E+01  0.101E+01  0.278E-03  0.101E+01
 -5.660  0.320E+01  0.297E-03  0.107E+01  0.107E+01  0.297E-03  0.107E+01
 -5.650  0.336E+01  0.314E-03  0.112E+01  0.112E+01  0.314E-03  0.112E+01
 -5.640  0.350E+01  0.329E-03  0.117E+01  0.117E+01  0.329E-03  0.117E+01
 -5.630  0.361E+01  0.342E-03  0.120E+01  0.120E+01  0.342E-03  0.120E+01
 -5.620  0.369E+01  0.352E-03  0.123E+01  0.123E+01  0.352E-03  0.123E+01
 -5.610  0.373E+01  0.359E-03  0.124E+01  0.124E+01  0.359E-03  0.124E+01
 -5.600  0.375E+01  0.363E-03  0.125E+01  0.125E+01  0.363E-03  0.125E+01
 -5.590  0.373E+01  0.364E-03  0.124E+01  0.124E+01  0.364E-03  0.124E+01
 -5.580  0.368E+01  0.362E-03  0.122E+01  0.122E+01  0.362E-03  0.122E+01
 -5.570  0.359E+01  0.356E-03  0.120E+01  0.120E+01  0.356E-03  0.120E+01
 -5.560  0.348E+01  0.348E-03  0.116E+01  0.116E+01  0.348E-03  0.116E+01
 -5.550  0.335E+01  0.338E-03  0.112E+01  0.112E+01  0.338E-03  0.112E+01
 -5.540  0.319E+01  0.325E-03  0.106E+01  0.106E+01  0.325E-03  0.106E+01
 -5.530  0.302E+01  0.310E-03  0.101E+01  0.101E+01  0.310E-03  0.101E+01
 -5.520  0.284E+01  0.294E-03  0.945E+00  0.945E+00  0.294E-03  0.945E+00
 -5.510  0.264E+01  0.277E-03  0.881E+00  0.881E+00  0.277E-03  0.881E+00
 -5.500  0.245E+01  0.259E-03  0.815E+00  0.815E+00  0.259E-03  0.815E+00
 -5.490  0.225E+01  0.240E-03  0.749E+00  0.749E+00  0.240E-03  0.749E+00
 -5.480  0.205E+01  0.221E-03  0.683E+00  0.683E+00  0.221E-03  0.683E+00
 -5.470  0.186E+01  0.203E-03  0.620E+00  0.620E+00  0.203E-03  0.620E+00
 -5.460  0.168E+01  0.185E-03  0.559E+00  0.559E+00  0.185E-03  0.559E+00
 -5.450  0.150E+01  0.167E-03  0.501E+00  0.501E+00  0.167E-03  0.501E+00
 -5.440  0.134E+01  0.151E-03  0.446E+00  0.446E+00  0.151E-03  0.446E+00
 -5.430  0.119E+01  0.135E-03  0.395E+00  0.395E+00  0.135E-03  0.395E+00
 -5.420  0.105E+01  0.120E-03  0.349E+00  0.349E+00  0.120E-03  0.349E+00
 -5.410  0.918E+00  0.106E-03  0.306E+00  0.306E+00  0.106E-03  0.306E+00
 -5.400  0.802E+00  0.939E-04  0.267E+00  0.267E+00  0.939E-04  0.267E+00
 -5.390  0.698E+00  0.823E-04  0.233E+00  0.233E+00  0.823E-04  0.233E+00
 -5.380  0.604E+00  0.719E-04  0.201E+00  0.201E+00  0.719E-04  0.201E+00
 -5.370  0.521E+00  0.624E-04  0.174E+00  0.174E+00  0.624E-04  0.174E+00
 -5.360  0.448E+00  0.540E-04  0.149E+00  0.149E+00  0.540E-04  0.149E+00
 -5.350  0.383E+00  0.464E-04  0.128E+00  0.128E+00  0.464E-04  0.128E+00
 -5.340  0.327E+00  0.397E-04  0.109E+00  0.109E+00  0.397E-04  0.109E+00
 -5.330  0.278E+00  0.338E-04  0.925E-01  0.925E-01  0.338E-04  0.925E-01
 -5.320  0.235E+00  0.286E-04  0.783E-01  0.783E-01  0.286E-04  0.783E-01
 -5.310  0.198E+00  0.241E-04  0.659E-01  0.659E-01  0.241E-04  0.659E-01
 -5.300  0.166E+00  0.202E-04  0.553E-01  0.553E-01  0.202E-04  0.553E-01
 -5.290  0.139E+00  0.168E-04  0.462E-01  0.462E-01  0.168E-04  0.462E-01
 -5.280  0.115E+00  0.139E-04  0.384E-01  0.384E-01  0.139E-04  0.384E-01
 -5.270  0.952E-01  0.115E-04  0.317E-01  0.317E-01  0.115E-04  0.317E-01
 -5.260  0.783E-01  0.940E-05  0.261E-01  0.261E-01  0.940E-05  0.261E-01
 -5.250  0.641E-01  0.764E-05  0.214E-01  0.214E-01  0.764E-05  0.214E-01
 -5.240  0.522E-01  0.617E-05  0.174E-01  0.174E-01  0.617E-05  0.174E-01
 -5.230  0.422E-01  0.495E-05  0.141E-01  0.141E-01  0.495E-05  0.141E-01
 -5.220  0.339E-01  0.394E-05  0.113E-01  0.113E-01  0.394E-05  0.113E-01
 -5.210  0.271E-01  0.312E-05  0.904E-02  0.904E-02  0.312E-05  0.904E-02
 -5.200  0.215E-01  0.245E-05  0.718E-02  0.718E-02  0.245E-05  0.718E-02
 -5.190  0.170E-01  0.191E-05  0.566E-02  0.566E-02  0.191E-05  0.566E-02
 -5.180  0.133E-01  0.148E-05  0.443E-02  0.443E-02  0.148E-05  0.443E-02
 -5.170  0.103E-01  0.114E-05  0.345E-02  0.345E-02  0.114E-05  0.345E-02
 -5.160  0.798E-02  0.866E-06  0.266E-02  0.266E-02  0.866E-06  0.266E-02
 -5.150  0.611E-02  0.655E-06  0.204E-02  0.204E-02  0.655E-06  0.204E-02
 -5.140  0.465E-02  0.491E-06  0.155E-02  0.155E-02  0.491E-06  0.155E-02
 -5.130  0.351E-02  0.366E-06  0.117E-02  0.117E-02  0.366E-06  0.117E-02
 -5.120  0.262E-02  0.270E-06  0.874E-03  0.874E-03  0.270E-06  0.874E-03
 -5.110  0.195E-02  0.197E-06  0.649E-03  0.649E-03  0.197E-06  0.649E-03
 -5.100  0.143E-02  0.143E-06  0.478E-03  0.478E-03  0.143E-06  0.478E-03
 -5.090  0.105E-02  0.103E-06  0.349E-03  0.349E-03  0.103E-06  0.349E-03
 -5.080  0.757E-03  0.735E-07  0.252E-03  0.252E-03  0.735E-07  0.252E-03
 -5.070  0.543E-03  0.520E-07  0.181E-03  0.181E-03  0.520E-07  0.181E-03
 -5.060  0.387E-03  0.365E-07  0.129E-03  0.129E-03  0.365E-07  0.129E-03
 -5.050  0.273E-03  0.253E-07  0.908E-04  0.908E-04  0.253E-07  0.908E-04
 -5.040  0.191E-03  0.174E-07  0.635E-04  0.635E-04  0.174E-07  0.635E-04
 -5.030  0.132E-03  0.119E-07  0.440E-04  0.440E-04  0.119E-07  0.440E-04
 -5.020  0.906E-04  0.806E-08  0.302E-04  0.302E-04  0.806E-08  0.302E-04
 -5.010  0.616E-04  0.540E-08  0.205E-04  0.205E-04  0.540E-08  0.205E-04
 -5.000  0.415E-04  0.359E-08  0.138E-04  0.138E-04  0.359E-08  0.138E-04
 -4.990  0.277E-04  0.236E-08  0.925E-05  0.925E-05  0.236E-08  0.925E-05
 -4.980  0.184E-04  0.154E-08  0.612E-05  0.612E-05  0.154E-08  0.612E-05
 -4.970  0.120E-04  0.100E-08  0.401E-05  0.401E-05  0.100E-08  0.401E-05
 -4.960  0.782E-05  0.654E-09  0.261E-05  0.261E-05  0.654E-09  0.261E-05
 -4.950  0.503E-05  0.439E-09  0.168E-05  0.168E-05  0.439E-09  0.168E-05
 -4.940  0.321E-05  0.327E-09  0.107E-05  0.107E-05  0.327E-09  0.107E-05
 -4.930  0.203E-05  0.306E-09  0.678E-06  0.678E-06  0.306E-09  0.678E-06
 -4.920  0.129E-05  0.389E-09  0.429E-06  0.429E-06  0.389E-09  0.429E-06
 -4.910  0.826E-06  0.629E-09  0.275E-06  0.275E-06  0.629E-09  0.275E-06
 -4.900  0.559E-06  0.113E-08  0.186E-06  0.186E-06  0.113E-08  0.186E-06
 -4.890  0.435E-06  0.212E-08  0.144E-06  0.144E-06  0.212E-08  0.144E-06
 -4.880  0.431E-06  0.398E-08  0.141E-06  0.141E-06  0.398E-08  0.141E-06
 -4.870  0.557E-06  0.744E-08  0.181E-06  0.181E-06  0.744E-08  0.181E-06
 -4.860  0.854E-06  0.138E-07  0.275E-06  0.275E-06  0.138E-07  0.275E-06
 -4.850  0.141E-05  0.253E-07  0.452E-06  0.452E-06  0.253E-07  0.452E-06
 -4.840  0.237E-05  0.460E-07  0.761E-06  0.761E-06  0.460E-07  0.761E-06
 -4.830  0.401E-05  0.828E-07  0.128E-05  0.128E-05  0.828E-07  0.128E-05
 -4.820  0.673E-05  0.148E-06  0.215E-05  0.215E-05  0.148E-06  0.215E-05
 -4.810  0.112E-04  0.260E-06  0.356E-05  0.356E-05  0.260E-06  0.356E-05
 -4.800  0.185E-04  0.455E-06  0.586E-05  0.586E-05  0.455E-06  0.586E-05
 -4.790  0.302E-04  0.788E-06  0.955E-05  0.955E-05  0.788E-06  0.955E-05
 -4.780  0.489E-04  0.135E-05  0.154E-04  0.154E-04  0.135E-05  0.154E-04
 -4.770  0.785E-04  0.229E-05  0.246E-04  0.246E-04  0.229E-05  0.246E-04
 -4.760  0.125E-03  0.385E-05  0.390E-04  0.390E-04  0.385E-05  0.390E-04
 -4.750  0.196E-03  0.640E-05  0.611E-04  0.611E-04  0.640E-05  0.611E-04
 -4.740  0.306E-03  0.105E-04  0.949E-04  0.949E-04  0.105E-04  0.949E-04
 -4.730  0.472E-03  0.172E-04  0.146E-03  0.146E-03  0.172E-04  0.146E-03
 -4.720  0.723E-03  0.277E-04  0.223E-03  0.223E-03  0.277E-04  0.223E-03
 -4.710  0.110E-02  0.443E-04  0.336E-03  0.336E-03  0.443E-04  0.336E-03
 -4.700  0.165E-02  0.702E-04  0.502E-03  0.502E-03  0.702E-04  0.502E-03
 -4.690  0.245E-02  0.110E-03  0.744E-03  0.744E-03  0.110E-03  0.744E-03
 -4.680  0.362E-02  0.170E-03  0.109E-02  0.109E-02  0.170E-03  0.109E-02
 -4.670  0.529E-02  0.262E-03  0.159E-02  0.159E-02  0.262E-03  0.159E-02
 -4.660  0.766E-02  0.398E-03  0.229E-02  0.229E-02  0.398E-03  0.229E-02
 -4.650  0.110E-01  0.599E-03  0.327E-02  0.327E-02  0.599E-03  0.327E-02
 -4.640  0.157E-01  0.893E-03  0.462E-02  0.462E-02  0.893E-03  0.462E-02
 -4.630  0.221E-01  0.132E-02  0.648E-02  0.648E-02  0.132E-02  0.648E-02
 -4.620  0.308E-01  0.192E-02  0.900E-02  0.900E-02  0.192E-02  0.900E-02
 -4.610  0.427E-01  0.278E-02  0.124E-01  0.124E-01  0.278E-02  0.124E-01
 -4.600  0.586E-01  0.398E-02  0.169E-01  0.169E-01  0.398E-02  0.169E-01
 -4.590  0.797E-01  0.565E-02  0.228E-01  0.228E-01  0.565E-02  0.228E-01
 -4.580  0.107E+00  0.793E-02  0.305E-01  0.305E-01  0.793E-02  0.305E-01
 -4.570  0.144E+00  0.110E-01  0.405E-01  0.405E-01  0.110E-01  0.405E-01
 -4.560  0.190E+00  0.152E-01  0.533E-01  0.533E-01  0.152E-01  0.533E-01
 -4.550  0.250E+00  0.206E-01  0.695E-01  0.695E-01  0.206E-01  0.695E-01
 -4.540  0.325E+00  0.278E-01  0.897E-01  0.897E-01  0.278E-01  0.897E-01
 -4.530  0.419E+00  0.372E-01  0.115E+00  0.115E+00  0.372E-01  0.115E+00
 -4.520  0.535E+00  0.492E-01  0.146E+00  0.146E+00  0.492E-01  0.146E+00
 -4.510  0.678E+00  0.644E-01  0.183E+00  0.183E+00  0.644E-01  0.183E+00
 -4.500  0.851E+00  0.834E-01  0.228E+00  0.228E+00  0.834E-01  0.228E+00
 -4.490  0.106E+01  0.107E+00  0.282E+00  0.282E+00  0.107E+00  0.282E+00
 -4.480  0.131E+01  0.136E+00  0.345E+00  0.345E+00  0.136E+00  0.345E+00
 -4.470  0.160E+01  0.171E+00  0.418E+00  0.418E+00  0.171E+00  0.418E+00
 -4.460  0.194E+01  0.214E+00  0.503E+00  0.503E+00  0.214E+00  0.503E+00
 -4.450  0.232E+01  0.264E+00  0.599E+00  0.599E+00  0.264E+00  0.599E+00
 -4.440  0.277E+01  0.323E+00  0.708E+00  0.708E+00  0.323E+00  0.708E+00
 -4.430  0.327E+01  0.391E+00  0.828E+00  0.828E+00  0.391E+00  0.828E+00
 -4.420  0.382E+01  0.469E+00  0.962E+00  0.962E+00  0.469E+00  0.962E+00
 -4.410  0.443E+01  0.557E+00  0.111E+01  0.111E+01  0.557E+00  0.111E+01
 -4.400  0.510E+01  0.656E+00  0.126E+01  0.126E+01  0.656E+00  0.126E+01
 -4.390  0.582E+01  0.766E+00  0.143E+01  0.143E+01  0.766E+00  0.143E+01
 -4.380  0.658E+01  0.886E+00  0.160E+01  0.160E+01  0.886E+00  0.160E+01
 -4.370  0.737E+01  0.102E+01  0.178E+01  0.178E+01  0.102E+01  0.178E+01
 -4.360  0.820E+01  0.115E+01  0.196E+01  0.196E+01  0.115E+01  0.196E+01
 -4.350  0.905E+01  0.130E+01  0.215E+01  0.215E+01  0.130E+01  0.215E+01
 -4.340  0.990E+01  0.145E+01  0.233E+01  0.233E+01  0.145E+01  0.233E+01
 -4.330  0.108E+02  0.161E+01  0.251E+01  0.251E+01  0.161E+01  0.251E+01
 -4.320  0.116E+02  0.177E+01  0.268E+01  0.268E+01  0.177E+01  0.268E+01
 -4.310  0.124E+02  0.194E+01  0.285E+01  0.285E+01  0.194E+01  0.285E+01
 -4.300  0.132E+02  0.210E+01  0.300E+01  0.300E+01  0.210E+01  0.300E+01
 -4.290  0.139E+02  0.227E+01  0.313E+01  0.313E+01  0.227E+01  0.313E+01
 -4.280  0.146E+02  0.243E+01  0.325E+01  0.325E+01  0.243E+01  0.325E+01
 -4.270  0.152E+02  0.259E+01  0.335E+01  0.335E+01  0.259E+01  0.335E+01
 -4.260  0.158E+02  0.275E+01  0.344E+01  0.344E+01  0.275E+01  0.344E+01
 -4.250  0.163E+02  0.291E+01  0.350E+01  0.350E+01  0.291E+01  0.350E+01
 -4.240  0.168E+02  0.306E+01  0.355E+01  0.355E+01  0.306E+01  0.355E+01
 -4.230  0.172E+02  0.321E+01  0.358E+01  0.358E+01  0.321E+01  0.358E+01
 -4.220  0.175E+02  0.337E+01  0.359E+01  0.359E+01  0.337E+01  0.359E+01
 -4.210  0.178E+02  0.352E+01  0.359E+01  0.359E+01  0.352E+01  0.359E+01
 -4.200  0.181E+02  0.367E+01  0.357E+01  0.357E+01  0.367E+01  0.357E+01
 -4.190  0.183E+02  0.383E+01  0.354E+01  0.354E+01  0.383E+01  0.354E+01
 -4.180  0.185E+02  0.399E+01  0.349E+01  0.349E+01  0.399E+01  0.349E+01
 -4.170  0.186E+02  0.416E+01  0.344E+01  0.344E+01  0.416E+01  0.344E+01
 -4.160  0.188E+02  0.433E+01  0.338E+01  0.338E+01  0.433E+01  0.338E+01
 -4.150  0.189E+02  0.450E+01  0.331E+01  0.331E+01  0.450E+01  0.331E+01
 -4.140  0.191E+02  0.467E+01  0.324E+01  0.324E+01  0.467E+01  0.324E+01
 -4.130  0.192E+02  0.485E+01  0.316E+01  0.316E+01  0.485E+01  0.316E+01
 -4.120  0.192E+02  0.501E+01  0.307E+01  0.307E+01  0.501E+01  0.307E+01
 -4.110  0.193E+02  0.517E+01  0.298E+01  0.298E+01  0.517E+01  0.298E+01
 -4.100  0.193E+02  0.532E+01  0.289E+01  0.289E+01  0.532E+01  0.289E+01
 -4.090  0.192E+02  0.545E+01  0.279E+01  0.279E+01  0.545E+01  0.279E+01
 -4.080  0.191E+02  0.555E+01  0.268E+01  0.268E+01  0.555E+01  0.268E+01
 -4.070  0.190E+02  0.563E+01  0.257E+01  0.257E+01  0.563E+01  0.257E+01
 -4.060  0.187E+02  0.568E+01  0.246E+01  0.246E+01  0.568E+01  0.246E+01
 -4.050  0.184E+02  0.570E+01  0.234E+01  0.234E+01  0.570E+01  0.234E+01
 -4.040  0.180E+02  0.568E+01  0.221E+01  0.221E+01  0.568E+01  0.221E+01
 -4.030  0.175E+02  0.562E+01  0.209E+01  0.209E+01  0.562E+01  0.209E+01
 -4.020  0.169E+02  0.552E+01  0.196E+01  0.196E+01  0.552E+01  0.196E+01
 -4.010  0.163E+02  0.538E+01  0.183E+01  0.183E+01  0.538E+01  0.183E+01
 -4.000  0.155E+02  0.521E+01  0.170E+01  0.170E+01  0.521E+01  0.170E+01
 -3.990  0.147E+02  0.500E+01  0.157E+01  0.157E+01  0.500E+01  0.157E+01
 -3.980  0.138E+02  0.476E+01  0.144E+01  0.144E+01  0.476E+01  0.144E+01
 -3.970  0.129E+02  0.449E+01  0.131E+01  0.131E+01  0.449E+01  0.131E+01
 -3.960  0.120E+02  0.420E+01  0.119E+01  0.119E+01  0.420E+01  0.119E+01
 -3.950  0.110E+02  0.389E+01  0.107E+01  0.107E+01  0.389E+01  0.107E+01
 -3.940  0.100E+02  0.358E+01  0.954E+00  0.954E+00  0.358E+01  0.954E+00
 -3.930  0.906E+01  0.326E+01  0.847E+00  0.847E+00  0.326E+01  0.847E+00
 -3.920  0.813E+01  0.294E+01  0.748E+00  0.748E+00  0.294E+01  0.748E+00
 -3.910  0.723E+01  0.263E+01  0.656E+00  0.656E+00  0.263E+01  0.656E+00
 -3.900  0.638E+01  0.233E+01  0.572E+00  0.572E+00  0.233E+01  0.572E+00
 -3.890  0.558E+01  0.205E+01  0.496E+00  0.496E+00  0.205E+01  0.496E+00
 -3.880  0.485E+01  0.178E+01  0.428E+00  0.428E+00  0.178E+01  0.428E+00
 -3.870  0.417E+01  0.153E+01  0.368E+00  0.368E+00  0.153E+01  0.368E+00
 -3.860  0.356E+01  0.131E+01  0.315E+00  0.315E+00  0.131E+01  0.315E+00
 -3.850  0.302E+01  0.111E+01  0.270E+00  0.270E+00  0.111E+01  0.270E+00
 -3.840  0.254E+01  0.926E+00  0.231E+00  0.231E+00  0.926E+00  0.231E+00
 -3.830  0.213E+01  0.768E+00  0.197E+00  0.197E+00  0.768E+00  0.197E+00
 -3.820  0.177E+01  0.630E+00  0.169E+00  0.169E+00  0.630E+00  0.169E+00
 -3.810  0.146E+01  0.513E+00  0.146E+00  0.146E+00  0.513E+00  0.146E+00
 -3.800  0.121E+01  0.413E+00  0.127E+00  0.127E+00  0.413E+00  0.127E+00
 -3.790  0.996E+00  0.330E+00  0.112E+00  0.112E+00  0.330E+00  0.112E+00
 -3.780  0.821E+00  0.261E+00  0.995E-01  0.995E-01  0.261E+00  0.995E-01
 -3.770  0.679E+00  0.205E+00  0.898E-01  0.898E-01  0.205E+00  0.898E-01
 -3.760  0.565E+00  0.159E+00  0.822E-01  0.822E-01  0.159E+00  0.822E-01
 -3.750  0.475E+00  0.123E+00  0.763E-01  0.763E-01  0.123E+00  0.763E-01
 -3.740  0.404E+00  0.941E-01  0.720E-01  0.720E-01  0.941E-01  0.720E-01
 -3.730  0.349E+00  0.716E-01  0.687E-01  0.687E-01  0.716E-01  0.687E-01
 -3.720  0.308E+00  0.543E-01  0.664E-01  0.664E-01  0.543E-01  0.664E-01
 -3.710  0.276E+00  0.410E-01  0.648E-01  0.648E-01  0.410E-01  0.648E-01
 -3.700  0.253E+00  0.309E-01  0.637E-01  0.637E-01  0.309E-01  0.637E-01
 -3.690  0.236E+00  0.234E-01  0.631E-01  0.631E-01  0.234E-01  0.631E-01
 -3.680  0.224E+00  0.178E-01  0.627E-01  0.627E-01  0.178E-01  0.627E-01
 -3.670  0.215E+00  0.137E-01  0.625E-01  0.625E-01  0.137E-01  0.625E-01
 -3.660  0.209E+00  0.108E-01  0.625E-01  0.625E-01  0.108E-01  0.625E-01
 -3.650  0.205E+00  0.861E-02  0.625E-01  0.625E-01  0.861E-02  0.625E-01
 -3.640  0.202E+00  0.708E-02  0.626E-01  0.626E-01  0.708E-02  0.626E-01
 -3.630  0.200E+00  0.599E-02  0.628E-01  0.628E-01  0.599E-02  0.628E-01
 -3.620  0.199E+00  0.522E-02  0.630E-01  0.630E-01  0.522E-02  0.630E-01
 -3.610  0.199E+00  0.467E-02  0.631E-01  0.631E-01  0.467E-02  0.631E-01
 -3.600  0.199E+00  0.428E-02  0.633E-01  0.633E-01  0.428E-02  0.633E-01
 -3.590  0.199E+00  0.401E-02  0.636E-01  0.636E-01  0.401E-02  0.636E-01
 -3.580  0.199E+00  0.381E-02  0.638E-01  0.638E-01  0.381E-02  0.638E-01
 -3.570  0.200E+00  0.367E-02  0.641E-01  0.641E-01  0.367E-02  0.641E-01
 -3.560  0.200E+00  0.356E-02  0.644E-01  0.644E-01  0.356E-02  0.644E-01
 -3.550  0.201E+00  0.348E-02  0.648E-01  0.648E-01  0.348E-02  0.648E-01
 -3.540  0.203E+00  0.342E-02  0.652E-01  0.652E-01  0.342E-02  0.652E-01
 -3.530  0.204E+00  0.337E-02  0.657E-01  0.657E-01  0.337E-02  0.657E-01
 -3.520  0.205E+00  0.333E-02  0.662E-01  0.662E-01  0.333E-02  0.662E-01
 -3.510  0.207E+00  0.330E-02  0.668E-01  0.668E-01  0.330E-02  0.668E-01
 -3.500  0.209E+00  0.327E-02  0.674E-01  0.674E-01  0.327E-02  0.674E-01
 -3.490  0.210E+00  0.325E-02  0.680E-01  0.680E-01  0.325E-02  0.680E-01
 -3.480  0.212E+00  0.323E-02  0.685E-01  0.685E-01  0.323E-02  0.685E-01
 -3.470  0.214E+00  0.321E-02  0.691E-01  0.691E-01  0.321E-02  0.691E-01
 -3.460  0.215E+00  0.319E-02  0.697E-01  0.697E-01  0.319E-02  0.697E-01
 -3.450  0.217E+00  0.317E-02  0.702E-01  0.702E-01  0.317E-02  0.702E-01
 -3.440  0.218E+00  0.316E-02  0.706E-01  0.706E-01  0.316E-02  0.706E-01
 -3.430  0.219E+00  0.314E-02  0.710E-01  0.710E-01  0.314E-02  0.710E-01
 -3.420  0.220E+00  0.311E-02  0.714E-01  0.714E-01  0.311E-02  0.714E-01
 -3.410  0.221E+00  0.309E-02  0.717E-01  0.717E-01  0.309E-02  0.717E-01
 -3.400  0.222E+00  0.307E-02  0.720E-01  0.720E-01  0.307E-02  0.720E-01
 -3.390  0.223E+00  0.304E-02  0.722E-01  0.722E-01  0.304E-02  0.722E-01
 -3.380  0.223E+00  0.302E-02  0.724E-01  0.724E-01  0.302E-02  0.724E-01
 -3.370  0.224E+00  0.299E-02  0.726E-01  0.726E-01  0.299E-02  0.726E-01
 -3.360  0.224E+00  0.297E-02  0.728E-01  0.728E-01  0.297E-02  0.728E-01
 -3.350  0.225E+00  0.295E-02  0.731E-01  0.731E-01  0.295E-02  0.731E-01
 -3.340  0.226E+00  0.293E-02  0.734E-01  0.734E-01  0.293E-02  0.734E-01
 -3.330  0.227E+00  0.291E-02  0.737E-01  0.737E-01  0.291E-02  0.737E-01
 -3.320  0.228E+00  0.289E-02  0.741E-01  0.741E-01  0.289E-02  0.741E-01
 -3.310  0.229E+00  0.287E-02  0.746E-01  0.746E-01  0.287E-02  0.746E-01
 -3.300  0.231E+00  0.286E-02  0.751E-01  0.751E-01  0.286E-02  0.751E-01
 -3.290  0.233E+00  0.285E-02  0.757E-01  0.757E-01  0.285E-02  0.757E-01
 -3.280  0.235E+00  0.285E-02  0.763E-01  0.763E-01  0.285E-02  0.763E-01
 -3.270  0.237E+00  0.284E-02  0.770E-01  0.770E-01  0.284E-02  0.770E-01
 -3.260  0.239E+00  0.284E-02  0.778E-01  0.778E-01  0.284E-02  0.778E-01
 -3.250  0.241E+00  0.284E-02  0.785E-01  0.785E-01  0.284E-02  0.785E-01
 -3.240  0.244E+00  0.284E-02  0.793E-01  0.793E-01  0.284E-02  0.793E-01
 -3.230  0.246E+00  0.284E-02  0.800E-01  0.800E-01  0.284E-02  0.800E-01
 -3.220  0.248E+00  0.284E-02  0.808E-01  0.808E-01  0.284E-02  0.808E-01
 -3.210  0.250E+00  0.283E-02  0.814E-01  0.814E-01  0.283E-02  0.814E-01
 -3.200  0.252E+00  0.283E-02  0.820E-01  0.820E-01  0.283E-02  0.820E-01
 -3.190  0.253E+00  0.282E-02  0.826E-01  0.826E-01  0.282E-02  0.826E-01
 -3.180  0.255E+00  0.281E-02  0.830E-01  0.830E-01  0.281E-02  0.830E-01
 -3.170  0.256E+00  0.280E-02  0.834E-01  0.834E-01  0.280E-02  0.834E-01
 -3.160  0.257E+00  0.279E-02  0.838E-01  0.838E-01  0.279E-02  0.838E-01
 -3.150  0.258E+00  0.278E-02  0.841E-01  0.841E-01  0.278E-02  0.841E-01
 -3.140  0.259E+00  0.276E-02  0.844E-01  0.844E-01  0.276E-02  0.844E-01
 -3.130  0.259E+00  0.274E-02  0.847E-01  0.847E-01  0.274E-02  0.847E-01
 -3.120  0.260E+00  0.273E-02  0.849E-01  0.849E-01  0.273E-02  0.849E-01
 -3.110  0.261E+00  0.271E-02  0.852E-01  0.852E-01  0.271E-02  0.852E-01
 -3.100  0.262E+00  0.270E-02  0.856E-01  0.856E-01  0.270E-02  0.856E-01
 -3.090  0.263E+00  0.268E-02  0.860E-01  0.860E-01  0.268E-02  0.860E-01
 -3.080  0.265E+00  0.267E-02  0.865E-01  0.865E-01  0.267E-02  0.865E-01
 -3.070  0.266E+00  0.266E-02  0.871E-01  0.871E-01  0.266E-02  0.871E-01
 -3.060  0.268E+00  0.266E-02  0.877E-01  0.877E-01  0.266E-02  0.877E-01
 -3.050  0.271E+00  0.265E-02  0.885E-01  0.885E-01  0.265E-02  0.885E-01
 -3.040  0.273E+00  0.265E-02  0.893E-01  0.893E-01  0.265E-02  0.893E-01
 -3.030  0.276E+00  0.265E-02  0.902E-01  0.902E-01  0.265E-02  0.902E-01
 -3.020  0.279E+00  0.266E-02  0.911E-01  0.911E-01  0.266E-02  0.911E-01
 -3.010  0.282E+00  0.266E-02  0.921E-01  0.921E-01  0.266E-02  0.921E-01
 -3.000  0.285E+00  0.266E-02  0.931E-01  0.931E-01  0.266E-02  0.931E-01
 -2.990  0.288E+00  0.267E-02  0.942E-01  0.942E-01  0.267E-02  0.942E-01
 -2.980  0.291E+00  0.267E-02  0.952E-01  0.952E-01  0.267E-02  0.952E-01
 -2.970  0.294E+00  0.267E-02  0.961E-01  0.961E-01  0.267E-02  0.961E-01
 -2.960  0.296E+00  0.267E-02  0.970E-01  0.970E-01  0.267E-02  0.970E-01
 -2.950  0.299E+00  0.267E-02  0.979E-01  0.979E-01  0.267E-02  0.979E-01
 -2.940  0.301E+00  0.267E-02  0.987E-01  0.987E-01  0.267E-02  0.987E-01
 -2.930  0.303E+00  0.266E-02  0.994E-01  0.994E-01  0.266E-02  0.994E-01
 -2.920  0.305E+00  0.266E-02  0.100E+00  0.100E+00  0.266E-02  0.100E+00
 -2.910  0.307E+00  0.265E-02  0.101E+00  0.101E+00  0.265E-02  0.101E+00
 -2.900  0.309E+00  0.264E-02  0.101E+00  0.101E+00  0.264E-02  0.101E+00
 -2.890  0.310E+00  0.263E-02  0.102E+00  0.102E+00  0.263E-02  0.102E+00
 -2.880  0.312E+00  0.261E-02  0.102E+00  0.102E+00  0.261E-02  0.102E+00
 -2.870  0.314E+00  0.260E-02  0.103E+00  0.103E+00  0.260E-02  0.103E+00
 -2.860  0.316E+00  0.259E-02  0.103E+00  0.103E+00  0.259E-02  0.103E+00
 -2.850  0.317E+00  0.258E-02  0.104E+00  0.104E+00  0.258E-02  0.104E+00
 -2.840  0.320E+00  0.257E-02  0.105E+00  0.105E+00  0.257E-02  0.105E+00
 -2.830  0.322E+00  0.256E-02  0.106E+00  0.106E+00  0.256E-02  0.106E+00
 -2.820  0.325E+00  0.256E-02  0.107E+00  0.107E+00  0.256E-02  0.107E+00
 -2.810  0.328E+00  0.255E-02  0.108E+00  0.108E+00  0.255E-02  0.108E+00
 -2.800  0.332E+00  0.255E-02  0.109E+00  0.109E+00  0.255E-02  0.109E+00
 -2.790  0.335E+00  0.255E-02  0.110E+00  0.110E+00  0.255E-02  0.110E+00
 -2.780  0.339E+00  0.255E-02  0.111E+00  0.111E+00  0.255E-02  0.111E+00
 -2.770  0.344E+00  0.255E-02  0.113E+00  0.113E+00  0.255E-02  0.113E+00
 -2.760  0.348E+00  0.256E-02  0.114E+00  0.114E+00  0.256E-02  0.114E+00
 -2.750  0.353E+00  0.256E-02  0.116E+00  0.116E+00  0.256E-02  0.116E+00
 -2.740  0.357E+00  0.257E-02  0.117E+00  0.117E+00  0.257E-02  0.117E+00
 -2.730  0.362E+00  0.257E-02  0.119E+00  0.119E+00  0.257E-02  0.119E+00
 -2.720  0.366E+00  0.257E-02  0.120E+00  0.120E+00  0.257E-02  0.120E+00
 -2.710  0.371E+00  0.257E-02  0.122E+00  0.122E+00  0.257E-02  0.122E+00
 -2.700  0.375E+00  0.257E-02  0.123E+00  0.123E+00  0.257E-02  0.123E+00
 -2.690  0.379E+00  0.257E-02  0.125E+00  0.125E+00  0.257E-02  0.125E+00
 -2.680  0.383E+00  0.257E-02  0.126E+00  0.126E+00  0.257E-02  0.126E+00
 -2.670  0.387E+00  0.256E-02  0.127E+00  0.127E+00  0.256E-02  0.127E+00
 -2.660  0.391E+00  0.256E-02  0.129E+00  0.129E+00  0.256E-02  0.129E+00
 -2.650  0.395E+00  0.255E-02  0.130E+00  0.130E+00  0.255E-02  0.130E+00
 -2.640  0.399E+00  0.254E-02  0.131E+00  0.131E+00  0.254E-02  0.131E+00
 -2.630  0.404E+00  0.254E-02  0.133E+00  0.133E+00  0.254E-02  0.133E+00
 -2.620  0.408E+00  0.253E-02  0.134E+00  0.134E+00  0.253E-02  0.134E+00
 -2.610  0.413E+00  0.252E-02  0.136E+00  0.136E+00  0.252E-02  0.136E+00
 -2.600  0.418E+00  0.251E-02  0.138E+00  0.138E+00  0.251E-02  0.138E+00
 -2.590  0.424E+00  0.251E-02  0.140E+00  0.140E+00  0.251E-02  0.140E+00
 -2.580  0.430E+00  0.251E-02  0.142E+00  0.142E+00  0.251E-02  0.142E+00
 -2.570  0.437E+00  0.250E-02  0.144E+00  0.144E+00  0.250E-02  0.144E+00
 -2.560  0.445E+00  0.250E-02  0.147E+00  0.147E+00  0.250E-02  0.147E+00
 -2.550  0.452E+00  0.251E-02  0.149E+00  0.149E+00  0.251E-02  0.149E+00
 -2.540  0.461E+00  0.251E-02  0.152E+00  0.152E+00  0.251E-02  0.152E+00
 -2.530  0.470E+00  0.251E-02  0.155E+00  0.155E+00  0.251E-02  0.155E+00
 -2.520  0.479E+00  0.252E-02  0.158E+00  0.158E+00  0.252E-02  0.158E+00
 -2.510  0.488E+00  0.252E-02  0.161E+00  0.161E+00  0.252E-02  0.161E+00
 -2.500  0.498E+00  0.253E-02  0.164E+00  0.164E+00  0.253E-02  0.164E+00
 -2.490  0.508E+00  0.253E-02  0.168E+00  0.168E+00  0.253E-02  0.168E+00
 -2.480  0.519E+00  0.254E-02  0.171E+00  0.171E+00  0.254E-02  0.171E+00
 -2.470  0.529E+00  0.254E-02  0.175E+00  0.175E+00  0.254E-02  0.175E+00
 -2.460  0.539E+00  0.255E-02  0.178E+00  0.178E+00  0.255E-02  0.178E+00
 -2.450  0.550E+00  0.255E-02  0.181E+00  0.181E+00  0.255E-02  0.181E+00
 -2.440  0.560E+00  0.255E-02  0.185E+00  0.185E+00  0.255E-02  0.185E+00
 -2.430  0.570E+00  0.255E-02  0.188E+00  0.188E+00  0.255E-02  0.188E+00
 -2.420  0.580E+00  0.255E-02  0.192E+00  0.192E+00  0.255E-02  0.192E+00
 -2.410  0.591E+00  0.255E-02  0.195E+00  0.195E+00  0.255E-02  0.195E+00
 -2.400  0.601E+00  0.255E-02  0.199E+00  0.199E+00  0.255E-02  0.199E+00
 -2.390  0.611E+00  0.255E-02  0.202E+00  0.202E+00  0.255E-02  0.202E+00
 -2.380  0.621E+00  0.255E-02  0.205E+00  0.205E+00  0.255E-02  0.205E+00
 -2.370  0.631E+00  0.256E-02  0.209E+00  0.209E+00  0.256E-02  0.209E+00
 -2.360  0.641E+00  0.256E-02  0.212E+00  0.212E+00  0.256E-02  0.212E+00
 -2.350  0.650E+00  0.256E-02  0.215E+00  0.215E+00  0.256E-02  0.215E+00
 -2.340  0.660E+00  0.256E-02  0.218E+00  0.218E+00  0.256E-02  0.218E+00
 -2.330  0.669E+00  0.256E-02  0.221E+00  0.221E+00  0.256E-02  0.221E+00
 -2.320  0.677E+00  0.256E-02  0.224E+00  0.224E+00  0.256E-02  0.224E+00
 -2.310  0.686E+00  0.256E-02  0.227E+00  0.227E+00  0.256E-02  0.227E+00
 -2.300  0.694E+00  0.256E-02  0.230E+00  0.230E+00  0.256E-02  0.230E+00
 -2.290  0.702E+00  0.255E-02  0.232E+00  0.232E+00  0.255E-02  0.232E+00
 -2.280  0.709E+00  0.255E-02  0.235E+00  0.235E+00  0.255E-02  0.235E+00
 -2.270  0.715E+00  0.254E-02  0.237E+00  0.237E+00  0.254E-02  0.237E+00
 -2.260  0.722E+00  0.254E-02  0.239E+00  0.239E+00  0.254E-02  0.239E+00
 -2.250  0.728E+00  0.253E-02  0.241E+00  0.241E+00  0.253E-02  0.241E+00
 -2.240  0.734E+00  0.251E-02  0.243E+00  0.243E+00  0.251E-02  0.243E+00
 -2.230  0.739E+00  0.250E-02  0.245E+00  0.245E+00  0.250E-02  0.245E+00
 -2.220  0.744E+00  0.248E-02  0.246E+00  0.246E+00  0.248E-02  0.246E+00
 -2.210  0.749E+00  0.246E-02  0.248E+00  0.248E+00  0.246E-02  0.248E+00
 -2.200  0.755E+00  0.244E-02  0.250E+00  0.250E+00  0.244E-02  0.250E+00
 -2.190  0.760E+00  0.242E-02  0.252E+00  0.252E+00  0.242E-02  0.252E+00
 -2.180  0.765E+00  0.239E-02  0.254E+00  0.254E+00  0.239E-02  0.254E+00
 -2.170  0.771E+00  0.236E-02  0.255E+00  0.255E+00  0.236E-02  0.255E+00
 -2.160  0.777E+00  0.233E-02  0.257E+00  0.257E+00  0.233E-02  0.257E+00
 -2.150  0.783E+00  0.230E-02  0.259E+00  0.259E+00  0.230E-02  0.259E+00
 -2.140  0.789E+00  0.227E-02  0.261E+00  0.261E+00  0.227E-02  0.261E+00
 -2.130  0.795E+00  0.223E-02  0.264E+00  0.264E+00  0.223E-02  0.264E+00
 -2.120  0.802E+00  0.219E-02  0.266E+00  0.266E+00  0.219E-02  0.266E+00
 -2.110  0.809E+00  0.215E-02  0.268E+00  0.268E+00  0.215E-02  0.268E+00
 -2.100  0.816E+00  0.211E-02  0.270E+00  0.270E+00  0.211E-02  0.270E+00
 -2.090  0.823E+00  0.207E-02  0.273E+00  0.273E+00  0.207E-02  0.273E+00
 -2.080  0.829E+00  0.202E-02  0.275E+00  0.275E+00  0.202E-02  0.275E+00
 -2.070  0.836E+00  0.197E-02  0.277E+00  0.277E+00  0.197E-02  0.277E+00
 -2.060  0.842E+00  0.192E-02  0.279E+00  0.279E+00  0.192E-02  0.279E+00
 -2.050  0.847E+00  0.187E-02  0.281E+00  0.281E+00  0.187E-02  0.281E+00
 -2.040  0.852E+00  0.181E-02  0.283E+00  0.283E+00  0.181E-02  0.283E+00
 -2.030  0.856E+00  0.175E-02  0.284E+00  0.284E+00  0.175E-02  0.284E+00
 -2.020  0.859E+00  0.169E-02  0.285E+00  0.285E+00  0.169E-02  0.285E+00
 -2.010  0.861E+00  0.163E-02  0.286E+00  0.286E+00  0.163E-02  0.286E+00
 -2.000  0.861E+00  0.157E-02  0.286E+00  0.286E+00  0.157E-02  0.286E+00
 -1.990  0.859E+00  0.151E-02  0.285E+00  0.285E+00  0.151E-02  0.285E+00
 -1.980  0.856E+00  0.144E-02  0.284E+00  0.284E+00  0.144E-02  0.284E+00
 -1.970  0.850E+00  0.137E-02  0.282E+00  0.282E+00  0.137E-02  0.282E+00
 -1.960  0.842E+00  0.131E-02  0.280E+00  0.280E+00  0.131E-02  0.280E+00
 -1.950  0.831E+00  0.124E-02  0.276E+00  0.276E+00  0.124E-02  0.276E+00
 -1.940  0.818E+00  0.117E-02  0.272E+00  0.272E+00  0.117E-02  0.272E+00
 -1.930  0.802E+00  0.110E-02  0.267E+00  0.267E+00  0.110E-02  0.267E+00
 -1.920  0.784E+00  0.103E-02  0.261E+00  0.261E+00  0.103E-02  0.261E+00
 -1.910  0.762E+00  0.964E-03  0.253E+00  0.253E+00  0.964E-03  0.253E+00
 -1.900  0.738E+00  0.896E-03  0.246E+00  0.246E+00  0.896E-03  0.246E+00
 -1.890  0.712E+00  0.830E-03  0.237E+00  0.237E+00  0.830E-03  0.237E+00
 -1.880  0.683E+00  0.765E-03  0.227E+00  0.227E+00  0.765E-03  0.227E+00
 -1.870  0.651E+00  0.702E-03  0.217E+00  0.217E+00  0.702E-03  0.217E+00
 -1.860  0.618E+00  0.640E-03  0.206E+00  0.206E+00  0.640E-03  0.206E+00
 -1.850  0.583E+00  0.582E-03  0.194E+00  0.194E+00  0.582E-03  0.194E+00
 -1.840  0.547E+00  0.525E-03  0.182E+00  0.182E+00  0.525E-03  0.182E+00
 -1.830  0.511E+00  0.472E-03  0.170E+00  0.170E+00  0.472E-03  0.170E+00
 -1.820  0.473E+00  0.421E-03  0.157E+00  0.157E+00  0.421E-03  0.157E+00
 -1.810  0.436E+00  0.374E-03  0.145E+00  0.145E+00  0.374E-03  0.145E+00
 -1.800  0.399E+00  0.330E-03  0.133E+00  0.133E+00  0.330E-03  0.133E+00
 -1.790  0.362E+00  0.289E-03  0.121E+00  0.121E+00  0.289E-03  0.121E+00
 -1.780  0.327E+00  0.252E-03  0.109E+00  0.109E+00  0.252E-03  0.109E+00
 -1.770  0.293E+00  0.218E-03  0.976E-01  0.976E-01  0.218E-03  0.976E-01
 -1.760  0.261E+00  0.187E-03  0.869E-01  0.869E-01  0.187E-03  0.869E-01
 -1.750  0.231E+00  0.160E-03  0.767E-01  0.767E-01  0.160E-03  0.767E-01
 -1.740  0.202E+00  0.136E-03  0.673E-01  0.673E-01  0.136E-03  0.673E-01
 -1.730  0.176E+00  0.114E-03  0.585E-01  0.585E-01  0.114E-03  0.585E-01
 -1.720  0.152E+00  0.953E-04  0.506E-01  0.506E-01  0.953E-04  0.506E-01
 -1.710  0.130E+00  0.790E-04  0.433E-01  0.433E-01  0.790E-04  0.433E-01
 -1.700  0.111E+00  0.650E-04  0.368E-01  0.368E-01  0.650E-04  0.368E-01
 -1.690  0.933E-01  0.531E-04  0.311E-01  0.311E-01  0.531E-04  0.311E-01
 -1.680  0.780E-01  0.431E-04  0.260E-01  0.260E-01  0.431E-04  0.260E-01
 -1.670  0.647E-01  0.346E-04  0.215E-01  0.215E-01  0.346E-04  0.215E-01
 -1.660  0.532E-01  0.276E-04  0.177E-01  0.177E-01  0.276E-04  0.177E-01
 -1.650  0.434E-01  0.219E-04  0.145E-01  0.145E-01  0.219E-04  0.145E-01
 -1.640  0.351E-01  0.172E-04  0.117E-01  0.117E-01  0.172E-04  0.117E-01
 -1.630  0.282E-01  0.134E-04  0.938E-02  0.938E-02  0.134E-04  0.938E-02
 -1.620  0.224E-01  0.103E-04  0.746E-02  0.746E-02  0.103E-04  0.746E-02
 -1.610  0.177E-01  0.789E-05  0.588E-02  0.588E-02  0.789E-05  0.588E-02
 -1.600  0.138E-01  0.599E-05  0.459E-02  0.459E-02  0.599E-05  0.459E-02
 -1.590  0.107E-01  0.451E-05  0.356E-02  0.356E-02  0.451E-05  0.356E-02
 -1.580  0.819E-02  0.336E-05  0.273E-02  0.273E-02  0.336E-05  0.273E-02
 -1.570  0.623E-02  0.249E-05  0.208E-02  0.208E-02  0.249E-05  0.208E-02
 -1.560  0.470E-02  0.182E-05  0.156E-02  0.156E-02  0.182E-05  0.156E-02
 -1.550  0.351E-02  0.133E-05  0.117E-02  0.117E-02  0.133E-05  0.117E-02
 -1.540  0.259E-02  0.955E-06  0.864E-03  0.864E-03  0.955E-06  0.864E-03
 -1.530  0.190E-02  0.682E-06  0.633E-03  0.633E-03  0.682E-06  0.633E-03
 -1.520  0.138E-02  0.483E-06  0.460E-03  0.460E-03  0.483E-06  0.460E-03
 -1.510  0.994E-03  0.338E-06  0.331E-03  0.331E-03  0.338E-06  0.331E-03
 -1.500  0.708E-03  0.235E-06  0.236E-03  0.236E-03  0.235E-06  0.236E-03
 -1.490  0.500E-03  0.162E-06  0.167E-03  0.167E-03  0.162E-06  0.167E-03
 -1.480  0.350E-03  0.110E-06  0.116E-03  0.116E-03  0.110E-06  0.116E-03
 -1.470  0.242E-03  0.747E-07  0.806E-04  0.806E-04  0.747E-07  0.806E-04
 -1.460  0.166E-03  0.500E-07  0.553E-04  0.553E-04  0.500E-07  0.553E-04
 -1.450  0.113E-03  0.332E-07  0.376E-04  0.376E-04  0.332E-07  0.376E-04
 -1.440  0.759E-04  0.218E-07  0.253E-04  0.253E-04  0.218E-07  0.253E-04
 -1.430  0.506E-04  0.142E-07  0.168E-04  0.168E-04  0.142E-07  0.168E-04
 -1.420  0.334E-04  0.916E-08  0.111E-04  0.111E-04  0.916E-08  0.111E-04
 -1.410  0.218E-04  0.585E-08  0.726E-05  0.726E-05  0.585E-08  0.726E-05
 -1.400  0.141E-04  0.370E-08  0.469E-05  0.469E-05  0.370E-08  0.469E-05
 -1.390  0.903E-05  0.232E-08  0.301E-05  0.301E-05  0.232E-08  0.301E-05
 -1.380  0.572E-05  0.144E-08  0.191E-05  0.191E-05  0.144E-08  0.191E-05
 -1.370  0.359E-05  0.886E-09  0.120E-05  0.120E-05  0.886E-09  0.120E-05
 -1.360  0.223E-05  0.539E-09  0.744E-06  0.744E-06  0.539E-09  0.744E-06
 -1.350  0.137E-05  0.325E-09  0.458E-06  0.458E-06  0.325E-09  0.458E-06
 -1.340  0.837E-06  0.194E-09  0.279E-06  0.279E-06  0.194E-09  0.279E-06
 -1.330  0.505E-06  0.115E-09  0.168E-06  0.168E-06  0.115E-09  0.168E-06
 -1.320  0.302E-06  0.672E-10  0.100E-06  0.100E-06  0.672E-10  0.100E-06
 -1.310  0.178E-06  0.390E-10  0.594E-07  0.594E-07  0.390E-10  0.594E-07
 -1.300  0.104E-06  0.224E-10  0.347E-07  0.347E-07  0.224E-10  0.347E-07
 -1.290  0.604E-07  0.127E-10  0.201E-07  0.201E-07  0.127E-10  0.201E-07
 -1.280  0.346E-07  0.716E-11  0.115E-07  0.115E-07  0.716E-11  0.115E-07
 -1.270  0.196E-07  0.399E-11  0.654E-08  0.654E-08  0.399E-11  0.654E-08
 -1.260  0.110E-07  0.220E-11  0.368E-08  0.368E-08  0.220E-11  0.368E-08
 -1.250  0.613E-08  0.120E-11  0.204E-08  0.204E-08  0.120E-11  0.204E-08
 -1.240  0.337E-08  0.650E-12  0.112E-08  0.112E-08  0.650E-12  0.112E-08
 -1.230  0.184E-08  0.348E-12  0.612E-09  0.612E-09  0.348E-12  0.612E-09
 -1.220  0.990E-09  0.184E-12  0.330E-09  0.330E-09  0.184E-12  0.330E-09
 -1.210  0.528E-09  0.965E-13  0.176E-09  0.176E-09  0.965E-13  0.176E-09
 -1.200  0.279E-09  0.501E-13  0.929E-10  0.929E-10  0.501E-13  0.929E-10
 -1.190  0.145E-09  0.256E-13  0.485E-10  0.485E-10  0.256E-13  0.485E-10
 -1.180  0.751E-10  0.129E-13  0.250E-10  0.250E-10  0.129E-13  0.250E-10
 -1.170  0.384E-10  0.648E-14  0.128E-10  0.128E-10  0.648E-14  0.128E-10
 -1.160  0.193E-10  0.315E-14  0.643E-11  0.643E-11  0.315E-14  0.643E-11
 -1.150  0.961E-11  0.153E-14  0.320E-11  0.320E-11  0.153E-14  0.320E-11
 -1.140  0.472E-11  0.711E-15  0.157E-11  0.157E-11  0.711E-15  0.157E-11
 -1.130  0.222E-11  0.289E-15  0.738E-12  0.738E-12  0.289E-15  0.738E-12
 -1.120  0.106E-11  0.137E-15  0.352E-12  0.352E-12  0.137E-15  0.352E-12
 -1.110  0.473E-12  0.554E-16  0.157E-12  0.157E-12  0.554E-16  0.157E-12
 -1.100  0.154E-12  0.121E-16  0.515E-13  0.515E-13  0.121E-16  0.515E-13
 -1.090  0.736E-13  0.574E-17  0.245E-13  0.245E-13  0.574E-17  0.245E-13
 -1.080  0.000E+00  0.000E+00  0.000E+00  0.000E+00  0.000E+00  0.000E+00
 -1.070  0.000E+00  0.000E+00  0.000E+00  0.000E+00  0.000E+00  0.000E+00
 -1.060  0.000E+00  0.000E+00  0.000E+00  0.000E+00  0.000E+00  0.000E+00
 -1.050  0.000E+00  0.000E+00  0.000E+00  0.000E+00  0.000E+00  0.000E+00
 -1.040  0.000E+00  0.000E+00  0.000E+00  0.000E+00  0.000E+00  0.000E+00
 -1.030  0.000E+00  0.000E+00  0.000E+00  0.000E+00  0.000E+00  0.000E+00
 -1.020  0.000E+00  0.000E+00  0.000E+00  0.000E+00  0.000E+00  0.000E+00
 -1.010  0.000E+00  0.000E+00  0.000E+00  0.000E+00  0.000E+00  0.000E+00
 -1.000  0.000E+00  0.000E+00  0.000E+00  0.000E+00  0.000E+00  0.000E+00
 -0.990  0.000E+00  0.000E+00  0.000E+00  0.000E+00  0.000E+00  0.000E+00
 -0.980  0.000E+00  0.000E+00  0.000E+00  0.000E+00  0.000E+00  0.000E+00
 -0.970  0.000E+00  0.000E+00  0.000E+00  0.000E+00  0.000E+00  0.000E+00
 -0.960  0.000E+00  0.000E+00  0.000E+00  0.000E+00  0.000E+00  0.000E+00
 -0.950  0.000E+00  0.000E+00  0.000E+00  0.000E+00  0.000E+00  0.000E+00
 -0.940  0.000E+00  0.000E+00  0.000E+00  0.000E+00  0.000E+00  0.000E+00
 -0.930  0.000E+00  0.000E+00  0.000E+00  0.000E+00  0.000E+00  0.000E+00
 -0.920  0.000E+00  0.000E+00  0.000E+00  0.000E+00  0.000E+00  0.000E+00
 -0.910  0.000E+00  0.000E+00  0.000E+00  0.000E+00  0.000E+00  0.000E+00
 -0.900  0.000E+00  0.000E+00  0.000E+00  0.000E+00  0.000E+00  0.000E+00
 -0.890  0.000E+00  0.000E+00  0.000E+00  0.000E+00  0.000E+00  0.000E+00
 -0.880  0.000E+00  0.000E+00  0.000E+00  0.000E+00  0.000E+00  0.000E+00
 -0.870  0.000E+00  0.000E+00  0.000E+00  0.000E+00  0.000E+00  0.000E+00
 -0.860  0.000E+00  0.000E+00  0.000E+00  0.000E+00  0.000E+00  0.000E+00
 -0.850  0.000E+00  0.000E+00  0.000E+00  0.000E+00  0.000E+00  0.000E+00
 -0.840  0.000E+00  0.000E+00  0.000E+00  0.000E+00  0.000E+00  0.000E+00
 -0.830  0.000E+00  0.000E+00  0.000E+00  0.000E+00  0.000E+00  0.000E+00
 -0.820  0.000E+00  0.000E+00  0.000E+00  0.000E+00  0.000E+00  0.000E+00
 -0.810  0.000E+00  0.000E+00  0.000E+00  0.000E+00  0.000E+00  0.000E+00
 -0.800  0.000E+00  0.000E+00  0.000E+00  0.000E+00  0.000E+00  0.000E+00
 -0.790  0.000E+00  0.000E+00  0.000E+00  0.000E+00  0.000E+00  0.000E+00
 -0.780  0.000E+00  0.000E+00  0.000E+00  0.000E+00  0.000E+00  0.000E+00
 -0.770  0.000E+00  0.000E+00  0.000E+00  0.000E+00  0.000E+00  0.000E+00
 -0.760  0.000E+00  0.000E+00  0.000E+00  0.000E+00  0.000E+00  0.000E+00
 -0.750  0.000E+00  0.000E+00  0.000E+00  0.000E+00  0.000E+00  0.000E+00
 -0.740  0.000E+00  0.000E+00  0.000E+00  0.000E+00  0.000E+00  0.000E+00
 -0.730  0.000E+00  0.000E+00  0.000E+00  0.000E+00  0.000E+00  0.000E+00
 -0.720  0.000E+00  0.000E+00  0.000E+00  0.000E+00  0.000E+00  0.000E+00
 -0.710  0.000E+00  0.000E+00  0.000E+00  0.000E+00  0.000E+00  0.000E+00
 -0.700  0.000E+00  0.000E+00  0.000E+00  0.000E+00  0.000E+00  0.000E+00
 -0.690  0.000E+00  0.000E+00  0.000E+00  0.000E+00  0.000E+00  0.000E+00
 -0.680  0.000E+00  0.000E+00  0.000E+00  0.000E+00  0.000E+00  0.000E+00
 -0.670  0.000E+00  0.000E+00  0.000E+00  0.000E+00  0.000E+00  0.000E+00
 -0.660  0.000E+00  0.000E+00  0.000E+00  0.000E+00  0.000E+00  0.000E+00
 -0.650  0.000E+00  0.000E+00  0.000E+00  0.000E+00  0.000E+00  0.000E+00
 -0.640  0.000E+00  0.000E+00  0.000E+00  0.000E+00  0.000E+00  0.000E+00
 -0.630  0.000E+00  0.000E+00  0.000E+00  0.000E+00  0.000E+00  0.000E+00
 -0.620  0.000E+00  0.000E+00  0.000E+00  0.000E+00  0.000E+00  0.000E+00
 -0.610  0.000E+00  0.000E+00  0.000E+00  0.000E+00  0.000E+00  0.000E+00
 -0.600  0.000E+00  0.000E+00  0.000E+00  0.000E+00  0.000E+00  0.000E+00
 -0.590  0.000E+00  0.000E+00  0.000E+00  0.000E+00  0.000E+00  0.000E+00
 -0.580  0.000E+00  0.000E+00  0.000E+00  0.000E+00  0.000E+00  0.000E+00
 -0.570  0.000E+00  0.000E+00  0.000E+00  0.000E+00  0.000E+00  0.000E+00
 -0.560  0.000E+00  0.000E+00  0.000E+00  0.000E+00  0.000E+00  0.000E+00
 -0.550  0.000E+00  0.000E+00  0.000E+00  0.000E+00  0.000E+00  0.000E+00
 -0.540  0.000E+00  0.000E+00  0.000E+00  0.000E+00  0.000E+00  0.000E+00
 -0.530  0.000E+00  0.000E+00  0.000E+00  0.000E+00  0.000E+00  0.000E+00
 -0.520  0.000E+00  0.000E+00  0.000E+00  0.000E+00  0.000E+00  0.000E+00
 -0.510  0.000E+00  0.000E+00  0.000E+00  0.000E+00  0.000E+00  0.000E+00
 -0.500  0.000E+00  0.000E+00  0.000E+00  0.000E+00  0.000E+00  0.000E+00
 -0.490  0.000E+00  0.000E+00  0.000E+00  0.000E+00  0.000E+00  0.000E+00
 -0.480  0.000E+00  0.000E+00  0.000E+00  0.000E+00  0.000E+00  0.000E+00
 -0.470  0.000E+00  0.000E+00  0.000E+00  0.000E+00  0.000E+00  0.000E+00
 -0.460  0.000E+00  0.000E+00  0.000E+00  0.000E+00  0.000E+00  0.000E+00
 -0.450  0.000E+00  0.000E+00  0.000E+00  0.000E+00  0.000E+00  0.000E+00
 -0.440  0.000E+00  0.000E+00  0.000E+00  0.000E+00  0.000E+00  0.000E+00
 -0.430  0.000E+00  0.000E+00  0.000E+00  0.000E+00  0.000E+00  0.000E+00
 -0.420  0.000E+00  0.000E+00  0.000E+00  0.000E+00  0.000E+00  0.000E+00
 -0.410  0.000E+00  0.000E+00  0.000E+00  0.000E+00  0.000E+00  0.000E+00
 -0.400  0.000E+00  0.000E+00  0.000E+00  0.000E+00  0.000E+00  0.000E+00
 -0.390  0.000E+00  0.000E+00  0.000E+00  0.000E+00  0.000E+00  0.000E+00
 -0.380  0.000E+00  0.000E+00  0.000E+00  0.000E+00  0.000E+00  0.000E+00
 -0.370  0.000E+00  0.000E+00  0.000E+00  0.000E+00  0.000E+00  0.000E+00
 -0.360  0.000E+00  0.000E+00  0.000E+00  0.000E+00  0.000E+00  0.000E+00
 -0.350  0.000E+00  0.000E+00  0.000E+00  0.000E+00  0.000E+00  0.000E+00
 -0.340  0.000E+00  0.000E+00  0.000E+00  0.000E+00  0.000E+00  0.000E+00
 -0.330  0.000E+00  0.000E+00  0.000E+00  0.000E+00  0.000E+00  0.000E+00
 -0.320  0.000E+00  0.000E+00  0.000E+00  0.000E+00  0.000E+00  0.000E+00
 -0.310  0.000E+00  0.000E+00  0.000E+00  0.000E+00  0.000E+00  0.000E+00
 -0.300  0.000E+00  0.000E+00  0.000E+00  0.000E+00  0.000E+00  0.000E+00
 -0.290  0.000E+00  0.000E+00  0.000E+00  0.000E+00  0.000E+00  0.000E+00
 -0.280  0.000E+00  0.000E+00  0.000E+00  0.000E+00  0.000E+00  0.000E+00
 -0.270  0.000E+00  0.000E+00  0.000E+00  0.000E+00  0.000E+00  0.000E+00
 -0.260  0.000E+00  0.000E+00  0.000E+00  0.000E+00  0.000E+00  0.000E+00
 -0.250  0.000E+00  0.000E+00  0.000E+00  0.000E+00  0.000E+00  0.000E+00
 -0.240  0.000E+00  0.000E+00  0.000E+00  0.000E+00  0.000E+00  0.000E+00
 -0.230  0.000E+00  0.000E+00  0.000E+00  0.000E+00  0.000E+00  0.000E+00
 -0.220  0.000E+00  0.000E+00  0.000E+00  0.000E+00  0.000E+00  0.000E+00
 -0.210  0.000E+00  0.000E+00  0.000E+00  0.000E+00  0.000E+00  0.000E+00
 -0.200  0.000E+00  0.000E+00  0.000E+00  0.000E+00  0.000E+00  0.000E+00
 -0.190  0.000E+00  0.000E+00  0.000E+00  0.000E+00  0.000E+00  0.000E+00
 -0.180  0.000E+00  0.000E+00  0.000E+00  0.000E+00  0.000E+00  0.000E+00
 -0.170  0.000E+00  0.000E+00  0.000E+00  0.000E+00  0.000E+00  0.000E+00
 -0.160  0.000E+00  0.000E+00  0.000E+00  0.000E+00  0.000E+00  0.000E+00
 -0.150  0.000E+00  0.000E+00  0.000E+00  0.000E+00  0.000E+00  0.000E+00
 -0.140  0.000E+00  0.000E+00  0.000E+00  0.000E+00  0.000E+00  0.000E+00
 -0.130  0.000E+00  0.000E+00  0.000E+00  0.000E+00  0.000E+00  0.000E+00
 -0.120  0.000E+00  0.000E+00  0.000E+00  0.000E+00  0.000E+00  0.000E+00
 -0.110  0.000E+00  0.000E+00  0.000E+00  0.000E+00  0.000E+00  0.000E+00
 -0.100  0.000E+00  0.000E+00  0.000E+00  0.000E+00  0.000E+00  0.000E+00
 -0.090  0.000E+00  0.000E+00  0.000E+00  0.000E+00  0.000E+00  0.000E+00
 -0.080  0.000E+00  0.000E+00  0.000E+00  0.000E+00  0.000E+00  0.000E+00
 -0.070  0.000E+00  0.000E+00  0.000E+00  0.000E+00  0.000E+00  0.000E+00
 -0.060  0.000E+00  0.000E+00  0.000E+00  0.000E+00  0.000E+00  0.000E+00
 -0.050  0.000E+00  0.000E+00  0.000E+00  0.000E+00  0.000E+00  0.000E+00
 -0.040  0.000E+00  0.000E+00  0.000E+00  0.000E+00  0.000E+00  0.000E+00
 -0.030  0.000E+00  0.000E+00  0.000E+00  0.000E+00  0.000E+00  0.000E+00
 -0.020  0.000E+00  0.000E+00  0.000E+00  0.000E+00  0.000E+00  0.000E+00
 -0.010  0.000E+00  0.000E+00  0.000E+00  0.000E+00  0.000E+00  0.000E+00
  0.000  0.000E+00  0.000E+00  0.000E+00  0.000E+00  0.000E+00  0.000E+00
  0.010  0.000E+00  0.000E+00  0.000E+00  0.000E+00  0.000E+00  0.000E+00
  0.020  0.000E+00  0.000E+00  0.000E+00  0.000E+00  0.000E+00  0.000E+00
  0.030  0.000E+00  0.000E+00  0.000E+00  0.000E+00  0.000E+00  0.000E+00
  0.040  0.000E+00  0.000E+00  0.000E+00  0.000E+00  0.000E+00  0.000E+00
  0.050  0.000E+00  0.000E+00  0.000E+00  0.000E+00  0.000E+00  0.000E+00
  0.060  0.000E+00  0.000E+00  0.000E+00  0.000E+00  0.000E+00  0.000E+00
  0.070  0.000E+00  0.000E+00  0.000E+00  0.000E+00  0.000E+00  0.000E+00
  0.080  0.000E+00  0.000E+00  0.000E+00  0.000E+00  0.000E+00  0.000E+00
  0.090  0.000E+00  0.000E+00  0.000E+00  0.000E+00  0.000E+00  0.000E+00
  0.100  0.000E+00  0.000E+00  0.000E+00  0.000E+00  0.000E+00  0.000E+00
  0.110  0.000E+00  0.000E+00  0.000E+00  0.000E+00  0.000E+00  0.000E+00
  0.120  0.000E+00  0.000E+00  0.000E+00  0.000E+00  0.000E+00  0.000E+00
  0.130  0.000E+00  0.000E+00  0.000E+00  0.000E+00  0.000E+00  0.000E+00
  0.140  0.000E+00  0.000E+00  0.000E+00  0.000E+00  0.000E+00  0.000E+00
  0.150  0.000E+00  0.000E+00  0.000E+00  0.000E+00  0.000E+00  0.000E+00
  0.160  0.000E+00  0.000E+00  0.000E+00  0.000E+00  0.000E+00  0.000E+00
  0.170  0.000E+00  0.000E+00  0.000E+00  0.000E+00  0.000E+00  0.000E+00
  0.180  0.000E+00  0.000E+00  0.000E+00  0.000E+00  0.000E+00  0.000E+00
  0.190  0.000E+00  0.000E+00  0.000E+00  0.000E+00  0.000E+00  0.000E+00
  0.200  0.000E+00  0.000E+00  0.000E+00  0.000E+00  0.000E+00  0.000E+00
  0.210  0.000E+00  0.000E+00  0.000E+00  0.000E+00  0.000E+00  0.000E+00
  0.220  0.000E+00  0.000E+00  0.000E+00  0.000E+00  0.000E+00  0.000E+00
  0.230  0.000E+00  0.000E+00  0.000E+00  0.000E+00  0.000E+00  0.000E+00
  0.240  0.000E+00  0.000E+00  0.000E+00  0.000E+00  0.000E+00  0.000E+00
  0.250  0.000E+00  0.000E+00  0.000E+00  0.000E+00  0.000E+00  0.000E+00
  0.260  0.000E+00  0.000E+00  0.000E+00  0.000E+00  0.000E+00  0.000E+00
  0.270  0.000E+00  0.000E+00  0.000E+00  0.000E+00  0.000E+00  0.000E+00
  0.280  0.000E+00  0.000E+00  0.000E+00  0.000E+00  0.000E+00  0.000E+00
  0.290  0.000E+00  0.000E+00  0.000E+00  0.000E+00  0.000E+00  0.000E+00
  0.300  0.000E+00  0.000E+00  0.000E+00  0.000E+00  0.000E+00  0.000E+00
  0.310  0.000E+00  0.000E+00  0.000E+00  0.000E+00  0.000E+00  0.000E+00
  0.320  0.000E+00  0.000E+00  0.000E+00  0.000E+00  0.000E+00  0.000E+00
  0.330  0.000E+00  0.000E+00  0.000E+00  0.000E+00  0.000E+00  0.000E+00
  0.340  0.000E+00  0.000E+00  0.000E+00  0.000E+00  0.000E+00  0.000E+00
  0.350  0.000E+00  0.000E+00  0.000E+00  0.000E+00  0.000E+00  0.000E+00
  0.360  0.000E+00  0.000E+00  0.000E+00  0.000E+00  0.000E+00  0.000E+00
  0.370  0.000E+00  0.000E+00  0.000E+00  0.000E+00  0.000E+00  0.000E+00
  0.380  0.000E+00  0.000E+00  0.000E+00  0.000E+00  0.000E+00  0.000E+00
  0.390  0.000E+00  0.000E+00  0.000E+00  0.000E+00  0.000E+00  0.000E+00
  0.400  0.000E+00  0.000E+00  0.000E+00  0.000E+00  0.000E+00  0.000E+00
  0.410  0.000E+00  0.000E+00  0.000E+00  0.000E+00  0.000E+00  0.000E+00
  0.420  0.000E+00  0.000E+00  0.000E+00  0.000E+00  0.000E+00  0.000E+00
  0.430  0.000E+00  0.000E+00  0.000E+00  0.000E+00  0.000E+00  0.000E+00
  0.440  0.000E+00  0.000E+00  0.000E+00  0.000E+00  0.000E+00  0.000E+00
  0.450  0.000E+00  0.000E+00  0.000E+00  0.000E+00  0.000E+00  0.000E+00
  0.460  0.000E+00  0.000E+00  0.000E+00  0.000E+00  0.000E+00  0.000E+00
  0.470  0.000E+00  0.000E+00  0.000E+00  0.000E+00  0.000E+00  0.000E+00
  0.480  0.000E+00  0.000E+00  0.000E+00  0.000E+00  0.000E+00  0.000E+00
  0.490  0.000E+00  0.000E+00  0.000E+00  0.000E+00  0.000E+00  0.000E+00
  0.500  0.000E+00  0.000E+00  0.000E+00  0.000E+00  0.000E+00  0.000E+00
  0.510  0.000E+00  0.000E+00  0.000E+00  0.000E+00  0.000E+00  0.000E+00
  0.520  0.000E+00  0.000E+00  0.000E+00  0.000E+00  0.000E+00  0.000E+00
  0.530  0.000E+00  0.000E+00  0.000E+00  0.000E+00  0.000E+00  0.000E+00
  0.540  0.000E+00  0.000E+00  0.000E+00  0.000E+00  0.000E+00  0.000E+00
  0.550  0.000E+00  0.000E+00  0.000E+00  0.000E+00  0.000E+00  0.000E+00
  0.560  0.000E+00  0.000E+00  0.000E+00  0.000E+00  0.000E+00  0.000E+00
  0.570  0.000E+00  0.000E+00  0.000E+00  0.000E+00  0.000E+00  0.000E+00
  0.580  0.000E+00  0.000E+00  0.000E+00  0.000E+00  0.000E+00  0.000E+00
  0.590  0.000E+00  0.000E+00  0.000E+00  0.000E+00  0.000E+00  0.000E+00
  0.600  0.000E+00  0.000E+00  0.000E+00  0.000E+00  0.000E+00  0.000E+00
  0.610  0.000E+00  0.000E+00  0.000E+00  0.000E+00  0.000E+00  0.000E+00
  0.620  0.000E+00  0.000E+00  0.000E+00  0.000E+00  0.000E+00  0.000E+00
  0.630  0.000E+00  0.000E+00  0.000E+00  0.000E+00  0.000E+00  0.000E+00
  0.640  0.000E+00  0.000E+00  0.000E+00  0.000E+00  0.000E+00  0.000E+00
  0.650  0.000E+00  0.000E+00  0.000E+00  0.000E+00  0.000E+00  0.000E+00
  0.660  0.000E+00  0.000E+00  0.000E+00  0.000E+00  0.000E+00  0.000E+00
  0.670  0.000E+00  0.000E+00  0.000E+00  0.000E+00  0.000E+00  0.000E+00
  0.680  0.000E+00  0.000E+00  0.000E+00  0.000E+00  0.000E+00  0.000E+00
  0.690  0.000E+00  0.000E+00  0.000E+00  0.000E+00  0.000E+00  0.000E+00
  0.700  0.000E+00  0.000E+00  0.000E+00  0.000E+00  0.000E+00  0.000E+00
  0.710  0.000E+00  0.000E+00  0.000E+00  0.000E+00  0.000E+00  0.000E+00
  0.720  0.000E+00  0.000E+00  0.000E+00  0.000E+00  0.000E+00  0.000E+00
  0.730  0.000E+00  0.000E+00  0.000E+00  0.000E+00  0.000E+00  0.000E+00
  0.740  0.000E+00  0.000E+00  0.000E+00  0.000E+00  0.000E+00  0.000E+00
  0.750  0.000E+00  0.000E+00  0.000E+00  0.000E+00  0.000E+00  0.000E+00
  0.760  0.000E+00  0.000E+00  0.000E+00  0.000E+00  0.000E+00  0.000E+00
  0.770  0.000E+00  0.000E+00  0.000E+00  0.000E+00  0.000E+00  0.000E+00
  0.780  0.000E+00  0.000E+00  0.000E+00  0.000E+00  0.000E+00  0.000E+00
  0.790  0.000E+00  0.000E+00  0.000E+00  0.000E+00  0.000E+00  0.000E+00
  0.800  0.000E+00  0.000E+00  0.000E+00  0.000E+00  0.000E+00  0.000E+00
  0.810  0.000E+00  0.000E+00  0.000E+00  0.000E+00  0.000E+00  0.000E+00
  0.820  0.000E+00  0.000E+00  0.000E+00  0.000E+00  0.000E+00  0.000E+00
  0.830  0.000E+00  0.000E+00  0.000E+00  0.000E+00  0.000E+00  0.000E+00
  0.840  0.000E+00  0.000E+00  0.000E+00  0.000E+00  0.000E+00  0.000E+00
  0.850  0.000E+00  0.000E+00  0.000E+00  0.000E+00  0.000E+00  0.000E+00
  0.860  0.000E+00  0.000E+00  0.000E+00  0.000E+00  0.000E+00  0.000E+00
  0.870  0.000E+00  0.000E+00  0.000E+00  0.000E+00  0.000E+00  0.000E+00
  0.880  0.000E+00  0.000E+00  0.000E+00  0.000E+00  0.000E+00  0.000E+00
  0.890  0.000E+00  0.000E+00  0.000E+00  0.000E+00  0.000E+00  0.000E+00
  0.900  0.000E+00  0.000E+00  0.000E+00  0.000E+00  0.000E+00  0.000E+00
  0.910  0.000E+00  0.000E+00  0.000E+00  0.000E+00  0.000E+00  0.000E+00
  0.920  0.000E+00  0.000E+00  0.000E+00  0.000E+00  0.000E+00  0.000E+00
  0.930  0.000E+00  0.000E+00  0.000E+00  0.000E+00  0.000E+00  0.000E+00
  0.940  0.000E+00  0.000E+00  0.000E+00  0.000E+00  0.000E+00  0.000E+00
  0.950  0.000E+00  0.000E+00  0.000E+00  0.000E+00  0.000E+00  0.000E+00
  0.960  0.000E+00  0.000E+00  0.000E+00  0.000E+00  0.000E+00  0.000E+00
  0.970  0.000E+00  0.000E+00  0.000E+00  0.000E+00  0.000E+00  0.000E+00
  0.980  0.000E+00  0.000E+00  0.000E+00  0.000E+00  0.000E+00  0.000E+00
  0.990  0.000E+00  0.000E+00  0.000E+00  0.000E+00  0.000E+00  0.000E+00
  1.000  0.000E+00  0.000E+00  0.000E+00  0.000E+00  0.000E+00  0.000E+00
  1.010  0.000E+00  0.000E+00  0.000E+00  0.000E+00  0.000E+00  0.000E+00
  1.020  0.000E+00  0.000E+00  0.000E+00  0.000E+00  0.000E+00  0.000E+00
  1.030  0.000E+00  0.000E+00  0.000E+00  0.000E+00  0.000E+00  0.000E+00
  1.040  0.000E+00  0.000E+00  0.000E+00  0.000E+00  0.000E+00  0.000E+00
  1.050  0.000E+00  0.000E+00  0.000E+00  0.000E+00  0.000E+00  0.000E+00
  1.060  0.000E+00  0.000E+00  0.000E+00  0.000E+00  0.000E+00  0.000E+00
  1.070  0.000E+00  0.000E+00  0.000E+00  0.000E+00  0.000E+00  0.000E+00
  1.080  0.000E+00  0.000E+00  0.000E+00  0.000E+00  0.000E+00  0.000E+00
  1.090  0.000E+00  0.000E+00  0.000E+00  0.000E+00  0.000E+00  0.000E+00
  1.100  0.000E+00  0.000E+00  0.000E+00  0.000E+00  0.000E+00  0.000E+00
  1.110  0.000E+00  0.000E+00  0.000E+00  0.000E+00  0.000E+00  0.000E+00
  1.120  0.000E+00  0.000E+00  0.000E+00  0.000E+00  0.000E+00  0.000E+00
  1.130  0.000E+00  0.000E+00  0.000E+00  0.000E+00  0.000E+00  0.000E+00
  1.140  0.000E+00  0.000E+00  0.000E+00  0.000E+00  0.000E+00  0.000E+00
  1.150  0.000E+00  0.000E+00  0.000E+00  0.000E+00  0.000E+00  0.000E+00
  1.160  0.000E+00  0.000E+00  0.000E+00  0.000E+00  0.000E+00  0.000E+00
  1.170  0.000E+00  0.000E+00  0.000E+00  0.000E+00  0.000E+00  0.000E+00
  1.180  0.000E+00  0.000E+00  0.000E+00  0.000E+00  0.000E+00  0.000E+00
  1.190  0.000E+00  0.000E+00  0.000E+00  0.000E+00  0.000E+00  0.000E+00
  1.200  0.000E+00  0.000E+00  0.000E+00  0.000E+00  0.000E+00  0.000E+00
  1.210  0.000E+00  0.000E+00  0.000E+00  0.000E+00  0.000E+00  0.000E+00
  1.220  0.000E+00  0.000E+00  0.000E+00  0.000E+00  0.000E+00  0.000E+00
  1.230  0.000E+00  0.000E+00  0.000E+00  0.000E+00  0.000E+00  0.000E+00
  1.240  0.000E+00  0.000E+00  0.000E+00  0.000E+00  0.000E+00  0.000E+00
  1.250  0.000E+00  0.000E+00  0.000E+00  0.000E+00  0.000E+00  0.000E+00
  1.260  0.000E+00  0.000E+00  0.000E+00  0.000E+00  0.000E+00  0.000E+00
  1.270  0.000E+00  0.000E+00  0.000E+00  0.000E+00  0.000E+00  0.000E+00
  1.280  0.000E+00  0.000E+00  0.000E+00  0.000E+00  0.000E+00  0.000E+00
  1.290  0.000E+00  0.000E+00  0.000E+00  0.000E+00  0.000E+00  0.000E+00
  1.300  0.000E+00  0.000E+00  0.000E+00  0.000E+00  0.000E+00  0.000E+00
  1.310  0.000E+00  0.000E+00  0.000E+00  0.000E+00  0.000E+00  0.000E+00
  1.320  0.000E+00  0.000E+00  0.000E+00  0.000E+00  0.000E+00  0.000E+00
  1.330  0.000E+00  0.000E+00  0.000E+00  0.000E+00  0.000E+00  0.000E+00
  1.340  0.000E+00  0.000E+00  0.000E+00  0.000E+00  0.000E+00  0.000E+00
  1.350  0.000E+00  0.000E+00  0.000E+00  0.000E+00  0.000E+00  0.000E+00
  1.360  0.000E+00  0.000E+00  0.000E+00  0.000E+00  0.000E+00  0.000E+00
  1.370  0.000E+00  0.000E+00  0.000E+00  0.000E+00  0.000E+00  0.000E+00
  1.380  0.000E+00  0.000E+00  0.000E+00  0.000E+00  0.000E+00  0.000E+00
  1.390  0.000E+00  0.000E+00  0.000E+00  0.000E+00  0.000E+00  0.000E+00
  1.400  0.000E+00  0.000E+00  0.000E+00  0.000E+00  0.000E+00  0.000E+00
  1.410  0.000E+00  0.000E+00  0.000E+00  0.000E+00  0.000E+00  0.000E+00
  1.420  0.000E+00  0.000E+00  0.000E+00  0.000E+00  0.000E+00  0.000E+00
  1.430  0.000E+00  0.000E+00  0.000E+00  0.000E+00  0.000E+00  0.000E+00
  1.440  0.000E+00  0.000E+00  0.000E+00  0.000E+00  0.000E+00  0.000E+00
  1.450  0.000E+00  0.000E+00  0.000E+00  0.000E+00  0.000E+00  0.000E+00
  1.460  0.000E+00  0.000E+00  0.000E+00  0.000E+00  0.000E+00  0.000E+00
  1.470  0.000E+00  0.000E+00  0.000E+00  0.000E+00  0.000E+00  0.000E+00
  1.480  0.000E+00  0.000E+00  0.000E+00  0.000E+00  0.000E+00  0.000E+00
  1.490  0.000E+00  0.000E+00  0.000E+00  0.000E+00  0.000E+00  0.000E+00
  1.500  0.000E+00  0.000E+00  0.000E+00  0.000E+00  0.000E+00  0.000E+00
  1.510  0.000E+00  0.000E+00  0.000E+00  0.000E+00  0.000E+00  0.000E+00
  1.520  0.000E+00  0.000E+00  0.000E+00  0.000E+00  0.000E+00  0.000E+00
  1.530  0.000E+00  0.000E+00  0.000E+00  0.000E+00  0.000E+00  0.000E+00
  1.540  0.000E+00  0.000E+00  0.000E+00  0.000E+00  0.000E+00  0.000E+00
  1.550  0.000E+00  0.000E+00  0.000E+00  0.000E+00  0.000E+00  0.000E+00
  1.560  0.000E+00  0.000E+00  0.000E+00  0.000E+00  0.000E+00  0.000E+00
  1.570  0.000E+00  0.000E+00  0.000E+00  0.000E+00  0.000E+00  0.000E+00
  1.580  0.000E+00  0.000E+00  0.000E+00  0.000E+00  0.000E+00  0.000E+00
  1.590  0.000E+00  0.000E+00  0.000E+00  0.000E+00  0.000E+00  0.000E+00
  1.600  0.000E+00  0.000E+00  0.000E+00  0.000E+00  0.000E+00  0.000E+00
  1.610  0.000E+00  0.000E+00  0.000E+00  0.000E+00  0.000E+00  0.000E+00
  1.620  0.000E+00  0.000E+00  0.000E+00  0.000E+00  0.000E+00  0.000E+00
  1.630  0.000E+00  0.000E+00  0.000E+00  0.000E+00  0.000E+00  0.000E+00
  1.640  0.000E+00  0.000E+00  0.000E+00  0.000E+00  0.000E+00  0.000E+00
  1.650  0.000E+00  0.000E+00  0.000E+00  0.000E+00  0.000E+00  0.000E+00
  1.660  0.000E+00  0.000E+00  0.000E+00  0.000E+00  0.000E+00  0.000E+00
  1.670  0.000E+00  0.000E+00  0.000E+00  0.000E+00  0.000E+00  0.000E+00
  1.680  0.000E+00  0.000E+00  0.000E+00  0.000E+00  0.000E+00  0.000E+00
  1.690  0.000E+00  0.000E+00  0.000E+00  0.000E+00  0.000E+00  0.000E+00
  1.700  0.000E+00  0.000E+00  0.000E+00  0.000E+00  0.000E+00  0.000E+00
  1.710  0.000E+00  0.000E+00  0.000E+00  0.000E+00  0.000E+00  0.000E+00
  1.720  0.000E+00  0.000E+00  0.000E+00  0.000E+00  0.000E+00  0.000E+00
  1.730  0.000E+00  0.000E+00  0.000E+00  0.000E+00  0.000E+00  0.000E+00
  1.740  0.000E+00  0.000E+00  0.000E+00  0.000E+00  0.000E+00  0.000E+00
  1.750  0.000E+00  0.000E+00  0.000E+00  0.000E+00  0.000E+00  0.000E+00
  1.760  0.000E+00  0.000E+00  0.000E+00  0.000E+00  0.000E+00  0.000E+00
  1.770  0.000E+00  0.000E+00  0.000E+00  0.000E+00  0.000E+00  0.000E+00
  1.780  0.000E+00  0.000E+00  0.000E+00  0.000E+00  0.000E+00  0.000E+00
  1.790  0.000E+00  0.000E+00  0.000E+00  0.000E+00  0.000E+00  0.000E+00
  1.800  0.000E+00  0.000E+00  0.000E+00  0.000E+00  0.000E+00  0.000E+00
  1.810  0.000E+00  0.000E+00  0.000E+00  0.000E+00  0.000E+00  0.000E+00
  1.820  0.000E+00  0.000E+00  0.000E+00  0.000E+00  0.000E+00  0.000E+00
  1.830  0.000E+00  0.000E+00  0.000E+00  0.000E+00  0.000E+00  0.000E+00
  1.840  0.000E+00  0.000E+00  0.000E+00  0.000E+00  0.000E+00  0.000E+00
  1.850  0.000E+00  0.000E+00  0.000E+00  0.000E+00  0.000E+00  0.000E+00
  1.860  0.000E+00  0.000E+00  0.000E+00  0.000E+00  0.000E+00  0.000E+00
  1.870  0.000E+00  0.000E+00  0.000E+00  0.000E+00  0.000E+00  0.000E+00
  1.880  0.000E+00  0.000E+00  0.000E+00  0.000E+00  0.000E+00  0.000E+00
  1.890  0.000E+00  0.000E+00  0.000E+00  0.000E+00  0.000E+00  0.000E+00
  1.900  0.000E+00  0.000E+00  0.000E+00  0.000E+00  0.000E+00  0.000E+00
  1.910  0.000E+00  0.000E+00  0.000E+00  0.000E+00  0.000E+00  0.000E+00
  1.920  0.000E+00  0.000E+00  0.000E+00  0.000E+00  0.000E+00  0.000E+00
  1.930  0.000E+00  0.000E+00  0.000E+00  0.000E+00  0.000E+00  0.000E+00
  1.940  0.000E+00  0.000E+00  0.000E+00  0.000E+00  0.000E+00  0.000E+00
  1.950  0.000E+00  0.000E+00  0.000E+00  0.000E+00  0.000E+00  0.000E+00
  1.960  0.000E+00  0.000E+00  0.000E+00  0.000E+00  0.000E+00  0.000E+00
  1.970  0.000E+00  0.000E+00  0.000E+00  0.000E+00  0.000E+00  0.000E+00
  1.980  0.000E+00  0.000E+00  0.000E+00  0.000E+00  0.000E+00  0.000E+00
  1.990  0.000E+00  0.000E+00  0.000E+00  0.000E+00  0.000E+00  0.000E+00
  2.000  0.000E+00  0.000E+00  0.000E+00  0.000E+00  0.000E+00  0.000E+00
  2.010  0.000E+00  0.000E+00  0.000E+00  0.000E+00  0.000E+00  0.000E+00
  2.020  0.000E+00  0.000E+00  0.000E+00  0.000E+00  0.000E+00  0.000E+00
  2.030  0.000E+00  0.000E+00  0.000E+00  0.000E+00  0.000E+00  0.000E+00
  2.040  0.000E+00  0.000E+00  0.000E+00  0.000E+00  0.000E+00  0.000E+00
  2.050  0.000E+00  0.000E+00  0.000E+00  0.000E+00  0.000E+00  0.000E+00
  2.060  0.000E+00  0.000E+00  0.000E+00  0.000E+00  0.000E+00  0.000E+00
  2.070  0.000E+00  0.000E+00  0.000E+00  0.000E+00  0.000E+00  0.000E+00
  2.080  0.000E+00  0.000E+00  0.000E+00  0.000E+00  0.000E+00  0.000E+00
  2.090  0.000E+00  0.000E+00  0.000E+00  0.000E+00  0.000E+00  0.000E+00
  2.100  0.000E+00  0.000E+00  0.000E+00  0.000E+00  0.000E+00  0.000E+00
  2.110  0.000E+00  0.000E+00  0.000E+00  0.000E+00  0.000E+00  0.000E+00
  2.120  0.000E+00  0.000E+00  0.000E+00  0.000E+00  0.000E+00  0.000E+00
  2.130  0.000E+00  0.000E+00  0.000E+00  0.000E+00  0.000E+00  0.000E+00
  2.140  0.000E+00  0.000E+00  0.000E+00  0.000E+00  0.000E+00  0.000E+00
  2.150  0.000E+00  0.000E+00  0.000E+00  0.000E+00  0.000E+00  0.000E+00
  2.160  0.000E+00  0.000E+00  0.000E+00  0.000E+00  0.000E+00  0.000E+00
  2.170  0.000E+00  0.000E+00  0.000E+00  0.000E+00  0.000E+00  0.000E+00
  2.180  0.000E+00  0.000E+00  0.000E+00  0.000E+00  0.000E+00  0.000E+00
  2.190  0.000E+00  0.000E+00  0.000E+00  0.000E+00  0.000E+00  0.000E+00
  2.200  0.000E+00  0.000E+00  0.000E+00  0.000E+00  0.000E+00  0.000E+00
  2.210  0.000E+00  0.000E+00  0.000E+00  0.000E+00  0.000E+00  0.000E+00
  2.220  0.000E+00  0.000E+00  0.000E+00  0.000E+00  0.000E+00  0.000E+00
  2.230  0.000E+00  0.000E+00  0.000E+00  0.000E+00  0.000E+00  0.000E+00
  2.240  0.000E+00  0.000E+00  0.000E+00  0.000E+00  0.000E+00  0.000E+00
  2.250  0.000E+00  0.000E+00  0.000E+00  0.000E+00  0.000E+00  0.000E+00
  2.260  0.000E+00  0.000E+00  0.000E+00  0.000E+00  0.000E+00  0.000E+00
  2.270  0.000E+00  0.000E+00  0.000E+00  0.000E+00  0.000E+00  0.000E+00
  2.280  0.000E+00  0.000E+00  0.000E+00  0.000E+00  0.000E+00  0.000E+00
  2.290  0.000E+00  0.000E+00  0.000E+00  0.000E+00  0.000E+00  0.000E+00
  2.300  0.000E+00  0.000E+00  0.000E+00  0.000E+00  0.000E+00  0.000E+00
  2.310  0.000E+00  0.000E+00  0.000E+00  0.000E+00  0.000E+00  0.000E+00
  2.320  0.000E+00  0.000E+00  0.000E+00  0.000E+00  0.000E+00  0.000E+00
  2.330  0.000E+00  0.000E+00  0.000E+00  0.000E+00  0.000E+00  0.000E+00
  2.340  0.000E+00  0.000E+00  0.000E+00  0.000E+00  0.000E+00  0.000E+00
  2.350  0.000E+00  0.000E+00  0.000E+00  0.000E+00  0.000E+00  0.000E+00
  2.360  0.000E+00  0.000E+00  0.000E+00  0.000E+00  0.000E+00  0.000E+00
  2.370  0.000E+00  0.000E+00  0.000E+00  0.000E+00  0.000E+00  0.000E+00
  2.380  0.000E+00  0.000E+00  0.000E+00  0.000E+00  0.000E+00  0.000E+00
  2.390  0.000E+00  0.000E+00  0.000E+00  0.000E+00  0.000E+00  0.000E+00
  2.400  0.000E+00  0.000E+00  0.000E+00  0.000E+00  0.000E+00  0.000E+00
  2.410  0.000E+00  0.000E+00  0.000E+00  0.000E+00  0.000E+00  0.000E+00
  2.420  0.000E+00  0.000E+00  0.000E+00  0.000E+00  0.000E+00  0.000E+00
  2.430  0.000E+00  0.000E+00  0.000E+00  0.000E+00  0.000E+00  0.000E+00
  2.440  0.000E+00  0.000E+00  0.000E+00  0.000E+00  0.000E+00  0.000E+00
  2.450  0.000E+00  0.000E+00  0.000E+00  0.000E+00  0.000E+00  0.000E+00
  2.460  0.000E+00  0.000E+00  0.000E+00  0.000E+00  0.000E+00  0.000E+00
  2.470  0.000E+00  0.000E+00  0.000E+00  0.000E+00  0.000E+00  0.000E+00
  2.480  0.000E+00  0.000E+00  0.000E+00  0.000E+00  0.000E+00  0.000E+00
  2.490  0.000E+00  0.000E+00  0.000E+00  0.000E+00  0.000E+00  0.000E+00
  2.500  0.000E+00  0.000E+00  0.000E+00  0.000E+00  0.000E+00  0.000E+00
  2.510  0.000E+00  0.000E+00  0.000E+00  0.000E+00  0.000E+00  0.000E+00
  2.520  0.000E+00  0.000E+00  0.000E+00  0.000E+00  0.000E+00  0.000E+00
  2.530  0.000E+00  0.000E+00  0.000E+00  0.000E+00  0.000E+00  0.000E+00
  2.540  0.000E+00  0.000E+00  0.000E+00  0.000E+00  0.000E+00  0.000E+00
  2.550  0.000E+00  0.000E+00  0.000E+00  0.000E+00  0.000E+00  0.000E+00
  2.560  0.000E+00  0.000E+00  0.000E+00  0.000E+00  0.000E+00  0.000E+00
  2.570  0.000E+00  0.000E+00  0.000E+00  0.000E+00  0.000E+00  0.000E+00
  2.580  0.000E+00  0.000E+00  0.000E+00  0.000E+00  0.000E+00  0.000E+00
  2.590  0.000E+00  0.000E+00  0.000E+00  0.000E+00  0.000E+00  0.000E+00
  2.600  0.000E+00  0.000E+00  0.000E+00  0.000E+00  0.000E+00  0.000E+00
  2.610  0.000E+00  0.000E+00  0.000E+00  0.000E+00  0.000E+00  0.000E+00
  2.620  0.000E+00  0.000E+00  0.000E+00  0.000E+00  0.000E+00  0.000E+00
  2.630  0.000E+00  0.000E+00  0.000E+00  0.000E+00  0.000E+00  0.000E+00
  2.640  0.000E+00  0.000E+00  0.000E+00  0.000E+00  0.000E+00  0.000E+00
  2.650  0.000E+00  0.000E+00  0.000E+00  0.000E+00  0.000E+00  0.000E+00
  2.660  0.000E+00  0.000E+00  0.000E+00  0.000E+00  0.000E+00  0.000E+00
  2.670  0.000E+00  0.000E+00  0.000E+00  0.000E+00  0.000E+00  0.000E+00
  2.680  0.000E+00  0.000E+00  0.000E+00  0.000E+00  0.000E+00  0.000E+00
  2.690  0.000E+00  0.000E+00  0.000E+00  0.000E+00  0.000E+00  0.000E+00
  2.700  0.390E-16  0.105E-28  0.130E-16  0.130E-16  0.105E-28  0.130E-16
  2.710  0.816E-16  0.220E-28  0.272E-16  0.272E-16  0.220E-28  0.272E-16
  2.720  0.169E-15  0.456E-28  0.563E-16  0.563E-16  0.456E-28  0.563E-16
  2.730  0.569E-15  0.733E-17  0.185E-15  0.185E-15  0.733E-17  0.185E-15
  2.740  0.117E-14  0.154E-16  0.380E-15  0.380E-15  0.154E-16  0.380E-15
  2.750  0.238E-14  0.321E-16  0.772E-15  0.772E-15  0.321E-16  0.772E-15
  2.760  0.480E-14  0.660E-16  0.155E-14  0.155E-14  0.660E-16  0.155E-14
  2.770  0.104E-13  0.181E-15  0.336E-14  0.336E-14  0.181E-15  0.336E-14
  2.780  0.207E-13  0.367E-15  0.664E-14  0.664E-14  0.367E-15  0.664E-14
  2.790  0.405E-13  0.738E-15  0.130E-13  0.130E-13  0.738E-15  0.130E-13
  2.800  0.792E-13  0.150E-14  0.254E-13  0.254E-13  0.150E-14  0.254E-13
  2.810  0.152E-12  0.297E-14  0.488E-13  0.488E-13  0.297E-14  0.488E-13
  2.820  0.290E-12  0.579E-14  0.928E-13  0.928E-13  0.579E-14  0.928E-13
  2.830  0.547E-12  0.112E-13  0.175E-12  0.175E-12  0.112E-13  0.175E-12
  2.840  0.102E-11  0.214E-13  0.326E-12  0.326E-12  0.214E-13  0.326E-12
  2.850  0.188E-11  0.406E-13  0.601E-12  0.601E-12  0.406E-13  0.601E-12
  2.860  0.345E-11  0.761E-13  0.110E-11  0.110E-11  0.761E-13  0.110E-11
  2.870  0.624E-11  0.141E-12  0.199E-11  0.199E-11  0.141E-12  0.199E-11
  2.880  0.112E-10  0.259E-12  0.355E-11  0.355E-11  0.259E-12  0.355E-11
  2.890  0.198E-10  0.470E-12  0.629E-11  0.629E-11  0.470E-12  0.629E-11
  2.900  0.348E-10  0.844E-12  0.110E-10  0.110E-10  0.844E-12  0.110E-10
  2.910  0.605E-10  0.150E-11  0.192E-10  0.192E-10  0.150E-11  0.192E-10
  2.920  0.104E-09  0.264E-11  0.330E-10  0.330E-10  0.264E-11  0.330E-10
  2.930  0.177E-09  0.460E-11  0.561E-10  0.561E-10  0.460E-11  0.561E-10
  2.940  0.299E-09  0.794E-11  0.945E-10  0.945E-10  0.794E-11  0.945E-10
  2.950  0.500E-09  0.136E-10  0.158E-09  0.158E-09  0.136E-10  0.158E-09
  2.960  0.827E-09  0.229E-10  0.260E-09  0.260E-09  0.229E-10  0.260E-09
  2.970  0.135E-08  0.383E-10  0.426E-09  0.426E-09  0.383E-10  0.426E-09
  2.980  0.219E-08  0.634E-10  0.689E-09  0.689E-09  0.634E-10  0.689E-09
  2.990  0.352E-08  0.104E-09  0.111E-08  0.111E-08  0.104E-09  0.111E-08
  3.000  0.560E-08  0.169E-09  0.175E-08  0.175E-08  0.169E-09  0.175E-08
  3.010  0.881E-08  0.271E-09  0.276E-08  0.276E-08  0.271E-09  0.276E-08
  3.020  0.137E-07  0.431E-09  0.429E-08  0.429E-08  0.431E-09  0.429E-08
  3.030  0.212E-07  0.679E-09  0.661E-08  0.661E-08  0.679E-09  0.661E-08
  3.040  0.324E-07  0.106E-08  0.101E-07  0.101E-07  0.106E-08  0.101E-07
  3.050  0.490E-07  0.163E-08  0.152E-07  0.152E-07  0.163E-08  0.152E-07
  3.060  0.735E-07  0.250E-08  0.228E-07  0.228E-07  0.250E-08  0.228E-07
  3.070  0.109E-06  0.378E-08  0.338E-07  0.338E-07  0.378E-08  0.338E-07
  3.080  0.160E-06  0.567E-08  0.496E-07  0.496E-07  0.567E-08  0.496E-07
  3.090  0.233E-06  0.842E-08  0.722E-07  0.722E-07  0.842E-08  0.722E-07
  3.100  0.336E-06  0.124E-07  0.104E-06  0.104E-06  0.124E-07  0.104E-06
  3.110  0.481E-06  0.180E-07  0.148E-06  0.148E-06  0.180E-07  0.148E-06
  3.120  0.680E-06  0.260E-07  0.209E-06  0.209E-06  0.260E-07  0.209E-06
  3.130  0.953E-06  0.372E-07  0.293E-06  0.293E-06  0.372E-07  0.293E-06
  3.140  0.132E-05  0.526E-07  0.406E-06  0.406E-06  0.526E-07  0.406E-06
  3.150  0.182E-05  0.738E-07  0.557E-06  0.557E-06  0.738E-07  0.557E-06
  3.160  0.248E-05  0.103E-06  0.758E-06  0.758E-06  0.103E-06  0.758E-06
  3.170  0.335E-05  0.141E-06  0.102E-05  0.102E-05  0.141E-06  0.102E-05
  3.180  0.448E-05  0.193E-06  0.137E-05  0.137E-05  0.193E-06  0.137E-05
  3.190  0.594E-05  0.261E-06  0.181E-05  0.181E-05  0.261E-06  0.181E-05
  3.200  0.781E-05  0.350E-06  0.237E-05  0.237E-05  0.350E-06  0.237E-05
  3.210  0.102E-04  0.465E-06  0.308E-05  0.308E-05  0.465E-06  0.308E-05
  3.220  0.131E-04  0.613E-06  0.397E-05  0.397E-05  0.613E-06  0.397E-05
  3.230  0.168E-04  0.801E-06  0.507E-05  0.507E-05  0.801E-06  0.507E-05
  3.240  0.214E-04  0.104E-05  0.643E-05  0.643E-05  0.104E-05  0.643E-05
  3.250  0.269E-04  0.133E-05  0.807E-05  0.807E-05  0.133E-05  0.807E-05
  3.260  0.336E-04  0.170E-05  0.101E-04  0.101E-04  0.170E-05  0.101E-04
  3.270  0.416E-04  0.215E-05  0.124E-04  0.124E-04  0.215E-05  0.124E-04
  3.280  0.511E-04  0.270E-05  0.152E-04  0.152E-04  0.270E-05  0.152E-04
  3.290  0.622E-04  0.337E-05  0.185E-04  0.185E-04  0.337E-05  0.185E-04
  3.300  0.753E-04  0.417E-05  0.223E-04  0.223E-04  0.417E-05  0.223E-04
  3.310  0.904E-04  0.511E-05  0.267E-04  0.267E-04  0.511E-05  0.267E-04
  3.320  0.108E-03  0.623E-05  0.318E-04  0.318E-04  0.623E-05  0.318E-04
  3.330  0.128E-03  0.754E-05  0.375E-04  0.375E-04  0.754E-05  0.375E-04
  3.340  0.150E-03  0.907E-05  0.439E-04  0.439E-04  0.907E-05  0.439E-04
  3.350  0.175E-03  0.108E-04  0.511E-04  0.511E-04  0.108E-04  0.511E-04
  3.360  0.203E-03  0.128E-04  0.591E-04  0.591E-04  0.128E-04  0.591E-04
  3.370  0.234E-03  0.151E-04  0.679E-04  0.679E-04  0.151E-04  0.679E-04
  3.380  0.268E-03  0.177E-04  0.775E-04  0.775E-04  0.177E-04  0.775E-04
  3.390  0.305E-03  0.206E-04  0.879E-04  0.879E-04  0.206E-04  0.879E-04
  3.400  0.345E-03  0.238E-04  0.992E-04  0.992E-04  0.238E-04  0.992E-04
  3.410  0.388E-03  0.274E-04  0.111E-03  0.111E-03  0.274E-04  0.111E-03
  3.420  0.435E-03  0.313E-04  0.124E-03  0.124E-03  0.313E-04  0.124E-03
  3.430  0.484E-03  0.355E-04  0.138E-03  0.138E-03  0.355E-04  0.138E-03
  3.440  0.537E-03  0.402E-04  0.152E-03  0.152E-03  0.402E-04  0.152E-03
  3.450  0.592E-03  0.452E-04  0.167E-03  0.167E-03  0.452E-04  0.167E-03
  3.460  0.650E-03  0.506E-04  0.183E-03  0.183E-03  0.506E-04  0.183E-03
  3.470  0.711E-03  0.563E-04  0.200E-03  0.200E-03  0.563E-04  0.200E-03
  3.480  0.775E-03  0.624E-04  0.217E-03  0.217E-03  0.624E-04  0.217E-03
  3.490  0.840E-03  0.689E-04  0.234E-03  0.234E-03  0.689E-04  0.234E-03
  3.500  0.909E-03  0.758E-04  0.252E-03  0.252E-03  0.758E-04  0.252E-03
  3.510  0.979E-03  0.830E-04  0.271E-03  0.271E-03  0.830E-04  0.271E-03
  3.520  0.105E-02  0.906E-04  0.290E-03  0.290E-03  0.906E-04  0.290E-03
  3.530  0.113E-02  0.985E-04  0.310E-03  0.310E-03  0.985E-04  0.310E-03
  3.540  0.120E-02  0.107E-03  0.330E-03  0.330E-03  0.107E-03  0.330E-03
  3.550  0.128E-02  0.115E-03  0.351E-03  0.351E-03  0.115E-03  0.351E-03
  3.560  0.137E-02  0.124E-03  0.372E-03  0.372E-03  0.124E-03  0.372E-03
  3.570  0.145E-02  0.134E-03  0.394E-03  0.394E-03  0.134E-03  0.394E-03
  3.580  0.154E-02  0.144E-03  0.416E-03  0.416E-03  0.144E-03  0.416E-03
  3.590  0.162E-02  0.154E-03  0.439E-03  0.439E-03  0.154E-03  0.439E-03
  3.600  0.171E-02  0.164E-03  0.462E-03  0.462E-03  0.164E-03  0.462E-03
  3.610  0.181E-02  0.175E-03  0.486E-03  0.486E-03  0.175E-03  0.486E-03
  3.620  0.190E-02  0.186E-03  0.511E-03  0.511E-03  0.186E-03  0.511E-03
  3.630  0.200E-02  0.197E-03  0.536E-03  0.536E-03  0.197E-03  0.536E-03
  3.640  0.210E-02  0.209E-03  0.561E-03  0.561E-03  0.209E-03  0.561E-03
  3.650  0.220E-02  0.220E-03  0.587E-03  0.587E-03  0.220E-03  0.587E-03
  3.660  0.231E-02  0.233E-03  0.614E-03  0.614E-03  0.233E-03  0.614E-03
  3.670  0.241E-02  0.245E-03  0.641E-03  0.641E-03  0.245E-03  0.641E-03
  3.680  0.252E-02  0.258E-03  0.668E-03  0.668E-03  0.258E-03  0.668E-03
  3.690  0.263E-02  0.270E-03  0.696E-03  0.696E-03  0.270E-03  0.696E-03
  3.700  0.274E-02  0.283E-03  0.724E-03  0.724E-03  0.283E-03  0.724E-03
  3.710  0.285E-02  0.297E-03  0.753E-03  0.753E-03  0.297E-03  0.753E-03
  3.720  0.297E-02  0.310E-03  0.782E-03  0.782E-03  0.310E-03  0.782E-03
  3.730  0.308E-02  0.324E-03  0.812E-03  0.812E-03  0.324E-03  0.812E-03
  3.740  0.320E-02  0.339E-03  0.842E-03  0.842E-03  0.339E-03  0.842E-03
  3.750  0.333E-02  0.353E-03  0.873E-03  0.873E-03  0.353E-03  0.873E-03
  3.760  0.345E-02  0.369E-03  0.905E-03  0.905E-03  0.369E-03  0.905E-03
  3.770  0.358E-02  0.385E-03  0.938E-03  0.938E-03  0.385E-03  0.938E-03
  3.780  0.372E-02  0.401E-03  0.972E-03  0.972E-03  0.401E-03  0.972E-03
  3.790  0.386E-02  0.418E-03  0.101E-02  0.101E-02  0.418E-03  0.101E-02
  3.800  0.400E-02  0.436E-03  0.104E-02  0.104E-02  0.436E-03  0.104E-02
  3.810  0.415E-02  0.455E-03  0.108E-02  0.108E-02  0.455E-03  0.108E-02
  3.820  0.430E-02  0.475E-03  0.112E-02  0.112E-02  0.475E-03  0.112E-02
  3.830  0.447E-02  0.496E-03  0.116E-02  0.116E-02  0.496E-03  0.116E-02
  3.840  0.463E-02  0.519E-03  0.120E-02  0.120E-02  0.519E-03  0.120E-02
  3.850  0.481E-02  0.543E-03  0.124E-02  0.124E-02  0.543E-03  0.124E-02
  3.860  0.499E-02  0.568E-03  0.128E-02  0.128E-02  0.568E-03  0.128E-02
  3.870  0.518E-02  0.596E-03  0.133E-02  0.133E-02  0.596E-03  0.133E-02
  3.880  0.538E-02  0.626E-03  0.137E-02  0.137E-02  0.626E-03  0.137E-02
  3.890  0.558E-02  0.659E-03  0.142E-02  0.142E-02  0.659E-03  0.142E-02
  3.900  0.580E-02  0.696E-03  0.147E-02  0.147E-02  0.696E-03  0.147E-02
  3.910  0.603E-02  0.737E-03  0.152E-02  0.152E-02  0.737E-03  0.152E-02
  3.920  0.628E-02  0.783E-03  0.157E-02  0.157E-02  0.783E-03  0.157E-02
  3.930  0.654E-02  0.835E-03  0.162E-02  0.162E-02  0.835E-03  0.162E-02
  3.940  0.683E-02  0.896E-03  0.168E-02  0.168E-02  0.896E-03  0.168E-02
  3.950  0.713E-02  0.965E-03  0.174E-02  0.174E-02  0.965E-03  0.174E-02
  3.960  0.747E-02  0.104E-02  0.179E-02  0.179E-02  0.104E-02  0.179E-02
  3.970  0.784E-02  0.114E-02  0.186E-02  0.186E-02  0.114E-02  0.186E-02
  3.980  0.825E-02  0.124E-02  0.192E-02  0.192E-02  0.124E-02  0.192E-02
  3.990  0.869E-02  0.136E-02  0.199E-02  0.199E-02  0.136E-02  0.199E-02
  4.000  0.919E-02  0.150E-02  0.206E-02  0.206E-02  0.150E-02  0.206E-02
  4.010  0.973E-02  0.165E-02  0.214E-02  0.214E-02  0.165E-02  0.214E-02
  4.020  0.103E-01  0.183E-02  0.222E-02  0.222E-02  0.183E-02  0.222E-02
  4.030  0.110E-01  0.203E-02  0.231E-02  0.231E-02  0.203E-02  0.231E-02
  4.040  0.117E-01  0.225E-02  0.241E-02  0.241E-02  0.225E-02  0.241E-02
  4.050  0.125E-01  0.249E-02  0.250E-02  0.250E-02  0.249E-02  0.250E-02
  4.060  0.133E-01  0.275E-02  0.261E-02  0.261E-02  0.275E-02  0.261E-02
  4.070  0.142E-01  0.303E-02  0.272E-02  0.272E-02  0.303E-02  0.272E-02
  4.080  0.152E-01  0.334E-02  0.284E-02  0.284E-02  0.334E-02  0.284E-02
  4.090  0.162E-01  0.366E-02  0.296E-02  0.296E-02  0.366E-02  0.296E-02
  4.100  0.173E-01  0.400E-02  0.309E-02  0.309E-02  0.400E-02  0.309E-02
  4.110  0.184E-01  0.435E-02  0.322E-02  0.322E-02  0.435E-02  0.322E-02
  4.120  0.195E-01  0.471E-02  0.335E-02  0.335E-02  0.471E-02  0.335E-02
  4.130  0.206E-01  0.507E-02  0.349E-02  0.349E-02  0.507E-02  0.349E-02
  4.140  0.218E-01  0.543E-02  0.363E-02  0.363E-02  0.543E-02  0.363E-02
  4.150  0.229E-01  0.578E-02  0.378E-02  0.378E-02  0.578E-02  0.378E-02
  4.160  0.240E-01  0.613E-02  0.392E-02  0.392E-02  0.613E-02  0.392E-02
  4.170  0.251E-01  0.645E-02  0.406E-02  0.406E-02  0.645E-02  0.406E-02
  4.180  0.261E-01  0.675E-02  0.420E-02  0.420E-02  0.675E-02  0.420E-02
  4.190  0.271E-01  0.701E-02  0.434E-02  0.434E-02  0.701E-02  0.434E-02
  4.200  0.279E-01  0.725E-02  0.448E-02  0.448E-02  0.725E-02  0.448E-02
  4.210  0.287E-01  0.744E-02  0.460E-02  0.460E-02  0.744E-02  0.460E-02
  4.220  0.294E-01  0.760E-02  0.473E-02  0.473E-02  0.760E-02  0.473E-02
  4.230  0.299E-01  0.770E-02  0.484E-02  0.484E-02  0.770E-02  0.484E-02
  4.240  0.304E-01  0.776E-02  0.494E-02  0.494E-02  0.776E-02  0.494E-02
  4.250  0.307E-01  0.778E-02  0.504E-02  0.504E-02  0.778E-02  0.504E-02
  4.260  0.309E-01  0.775E-02  0.512E-02  0.512E-02  0.775E-02  0.512E-02
  4.270  0.309E-01  0.767E-02  0.519E-02  0.519E-02  0.767E-02  0.519E-02
  4.280  0.309E-01  0.755E-02  0.525E-02  0.525E-02  0.755E-02  0.525E-02
  4.290  0.307E-01  0.739E-02  0.530E-02  0.530E-02  0.739E-02  0.530E-02
  4.300  0.304E-01  0.719E-02  0.534E-02  0.534E-02  0.719E-02  0.534E-02
  4.310  0.301E-01  0.697E-02  0.537E-02  0.537E-02  0.697E-02  0.537E-02
  4.320  0.296E-01  0.672E-02  0.539E-02  0.539E-02  0.672E-02  0.539E-02
  4.330  0.291E-01  0.645E-02  0.540E-02  0.540E-02  0.645E-02  0.540E-02
  4.340  0.285E-01  0.617E-02  0.540E-02  0.540E-02  0.617E-02  0.540E-02
  4.350  0.279E-01  0.588E-02  0.539E-02  0.539E-02  0.588E-02  0.539E-02
  4.360  0.273E-01  0.559E-02  0.537E-02  0.537E-02  0.559E-02  0.537E-02
  4.370  0.266E-01  0.529E-02  0.535E-02  0.535E-02  0.529E-02  0.535E-02
  4.380  0.260E-01  0.500E-02  0.533E-02  0.533E-02  0.500E-02  0.533E-02
  4.390  0.253E-01  0.472E-02  0.530E-02  0.530E-02  0.472E-02  0.530E-02
  4.400  0.247E-01  0.445E-02  0.526E-02  0.526E-02  0.445E-02  0.526E-02
  4.410  0.241E-01  0.419E-02  0.523E-02  0.523E-02  0.419E-02  0.523E-02
  4.420  0.235E-01  0.395E-02  0.519E-02  0.519E-02  0.395E-02  0.519E-02
  4.430  0.229E-01  0.372E-02  0.516E-02  0.516E-02  0.372E-02  0.516E-02
  4.440  0.224E-01  0.351E-02  0.512E-02  0.512E-02  0.351E-02  0.512E-02
  4.450  0.219E-01  0.332E-02  0.508E-02  0.508E-02  0.332E-02  0.508E-02
  4.460  0.214E-01  0.314E-02  0.505E-02  0.505E-02  0.314E-02  0.505E-02
  4.470  0.210E-01  0.297E-02  0.501E-02  0.501E-02  0.297E-02  0.501E-02
  4.480  0.206E-01  0.282E-02  0.497E-02  0.497E-02  0.282E-02  0.497E-02
  4.490  0.202E-01  0.269E-02  0.494E-02  0.494E-02  0.269E-02  0.494E-02
  4.500  0.198E-01  0.256E-02  0.490E-02  0.490E-02  0.256E-02  0.490E-02
  4.510  0.195E-01  0.245E-02  0.486E-02  0.486E-02  0.245E-02  0.486E-02
  4.520  0.192E-01  0.235E-02  0.482E-02  0.482E-02  0.235E-02  0.482E-02
  4.530  0.189E-01  0.225E-02  0.479E-02  0.479E-02  0.225E-02  0.479E-02
  4.540  0.186E-01  0.217E-02  0.475E-02  0.475E-02  0.217E-02  0.475E-02
  4.550  0.183E-01  0.209E-02  0.471E-02  0.471E-02  0.209E-02  0.471E-02
  4.560  0.181E-01  0.202E-02  0.467E-02  0.467E-02  0.202E-02  0.467E-02
  4.570  0.178E-01  0.195E-02  0.464E-02  0.464E-02  0.195E-02  0.464E-02
  4.580  0.176E-01  0.189E-02  0.461E-02  0.461E-02  0.189E-02  0.461E-02
  4.590  0.174E-01  0.183E-02  0.457E-02  0.457E-02  0.183E-02  0.457E-02
  4.600  0.172E-01  0.178E-02  0.455E-02  0.455E-02  0.178E-02  0.455E-02
  4.610  0.170E-01  0.173E-02  0.452E-02  0.452E-02  0.173E-02  0.452E-02
  4.620  0.168E-01  0.168E-02  0.449E-02  0.449E-02  0.168E-02  0.449E-02
  4.630  0.167E-01  0.163E-02  0.447E-02  0.447E-02  0.163E-02  0.447E-02
  4.640  0.166E-01  0.159E-02  0.445E-02  0.445E-02  0.159E-02  0.445E-02
  4.650  0.164E-01  0.155E-02  0.444E-02  0.444E-02  0.155E-02  0.444E-02
  4.660  0.163E-01  0.152E-02  0.442E-02  0.442E-02  0.152E-02  0.442E-02
  4.670  0.162E-01  0.148E-02  0.441E-02  0.441E-02  0.148E-02  0.441E-02
  4.680  0.161E-01  0.145E-02  0.440E-02  0.440E-02  0.145E-02  0.440E-02
  4.690  0.160E-01  0.142E-02  0.438E-02  0.438E-02  0.142E-02  0.438E-02
  4.700  0.159E-01  0.139E-02  0.437E-02  0.437E-02  0.139E-02  0.437E-02
  4.710  0.158E-01  0.135E-02  0.435E-02  0.435E-02  0.135E-02  0.435E-02
  4.720  0.156E-01  0.132E-02  0.433E-02  0.433E-02  0.132E-02  0.433E-02
  4.730  0.155E-01  0.129E-02  0.431E-02  0.431E-02  0.129E-02  0.431E-02
  4.740  0.154E-01  0.126E-02  0.428E-02  0.428E-02  0.126E-02  0.428E-02
  4.750  0.152E-01  0.124E-02  0.425E-02  0.425E-02  0.124E-02  0.425E-02
  4.760  0.151E-01  0.121E-02  0.421E-02  0.421E-02  0.121E-02  0.421E-02
  4.770  0.149E-01  0.118E-02  0.418E-02  0.418E-02  0.118E-02  0.418E-02
  4.780  0.147E-01  0.115E-02  0.413E-02  0.413E-02  0.115E-02  0.413E-02
  4.790  0.145E-01  0.112E-02  0.409E-02  0.409E-02  0.112E-02  0.409E-02
  4.800  0.143E-01  0.110E-02  0.405E-02  0.405E-02  0.110E-02  0.405E-02
  4.810  0.142E-01  0.107E-02  0.400E-02  0.400E-02  0.107E-02  0.400E-02
  4.820  0.140E-01  0.105E-02  0.396E-02  0.396E-02  0.105E-02  0.396E-02
  4.830  0.138E-01  0.103E-02  0.392E-02  0.392E-02  0.103E-02  0.392E-02
  4.840  0.137E-01  0.100E-02  0.389E-02  0.389E-02  0.100E-02  0.389E-02
  4.850  0.135E-01  0.985E-03  0.386E-02  0.386E-02  0.985E-03  0.386E-02
  4.860  0.134E-01  0.966E-03  0.383E-02  0.383E-02  0.966E-03  0.383E-02
  4.870  0.133E-01  0.948E-03  0.381E-02  0.381E-02  0.948E-03  0.381E-02
  4.880  0.132E-01  0.932E-03  0.379E-02  0.379E-02  0.932E-03  0.379E-02
  4.890  0.132E-01  0.917E-03  0.379E-02  0.379E-02  0.917E-03  0.379E-02
  4.900  0.131E-01  0.902E-03  0.378E-02  0.378E-02  0.902E-03  0.378E-02
  4.910  0.131E-01  0.888E-03  0.378E-02  0.378E-02  0.888E-03  0.378E-02
  4.920  0.131E-01  0.874E-03  0.378E-02  0.378E-02  0.874E-03  0.378E-02
  4.930  0.131E-01  0.861E-03  0.378E-02  0.378E-02  0.861E-03  0.378E-02
  4.940  0.131E-01  0.848E-03  0.379E-02  0.379E-02  0.848E-03  0.379E-02
  4.950  0.130E-01  0.835E-03  0.379E-02  0.379E-02  0.835E-03  0.379E-02
  4.960  0.130E-01  0.821E-03  0.379E-02  0.379E-02  0.821E-03  0.379E-02
  4.970  0.130E-01  0.808E-03  0.379E-02  0.379E-02  0.808E-03  0.379E-02
  4.980  0.129E-01  0.794E-03  0.378E-02  0.378E-02  0.794E-03  0.378E-02
  4.990  0.129E-01  0.780E-03  0.377E-02  0.377E-02  0.780E-03  0.377E-02
  5.000  0.128E-01  0.766E-03  0.375E-02  0.375E-02  0.766E-03  0.375E-02
  5.010  0.127E-01  0.751E-03  0.373E-02  0.373E-02  0.751E-03  0.373E-02
  5.020  0.126E-01  0.736E-03  0.371E-02  0.371E-02  0.736E-03  0.371E-02
  5.030  0.125E-01  0.721E-03  0.368E-02  0.368E-02  0.721E-03  0.368E-02
  5.040  0.124E-01  0.706E-03  0.365E-02  0.365E-02  0.706E-03  0.365E-02
  5.050  0.122E-01  0.691E-03  0.361E-02  0.361E-02  0.691E-03  0.361E-02
  5.060  0.121E-01  0.676E-03  0.357E-02  0.357E-02  0.676E-03  0.357E-02
  5.070  0.119E-01  0.661E-03  0.352E-02  0.352E-02  0.661E-03  0.352E-02
  5.080  0.117E-01  0.646E-03  0.347E-02  0.347E-02  0.646E-03  0.347E-02
  5.090  0.115E-01  0.632E-03  0.342E-02  0.342E-02  0.632E-03  0.342E-02
  5.100  0.114E-01  0.618E-03  0.337E-02  0.337E-02  0.618E-03  0.337E-02
  5.110  0.112E-01  0.605E-03  0.333E-02  0.333E-02  0.605E-03  0.333E-02
  5.120  0.110E-01  0.593E-03  0.328E-02  0.328E-02  0.593E-03  0.328E-02
  5.130  0.109E-01  0.581E-03  0.323E-02  0.323E-02  0.581E-03  0.323E-02
  5.140  0.107E-01  0.570E-03  0.319E-02  0.319E-02  0.570E-03  0.319E-02
  5.150  0.106E-01  0.560E-03  0.315E-02  0.315E-02  0.560E-03  0.315E-02
  5.160  0.105E-01  0.550E-03  0.312E-02  0.312E-02  0.550E-03  0.312E-02
  5.170  0.104E-01  0.542E-03  0.309E-02  0.309E-02  0.542E-03  0.309E-02
  5.180  0.103E-01  0.534E-03  0.307E-02  0.307E-02  0.534E-03  0.307E-02
  5.190  0.102E-01  0.526E-03  0.306E-02  0.306E-02  0.526E-03  0.306E-02
  5.200  0.102E-01  0.520E-03  0.305E-02  0.305E-02  0.520E-03  0.305E-02
  5.210  0.102E-01  0.514E-03  0.305E-02  0.305E-02  0.514E-03  0.305E-02
  5.220  0.102E-01  0.508E-03  0.306E-02  0.306E-02  0.508E-03  0.306E-02
  5.230  0.102E-01  0.502E-03  0.307E-02  0.307E-02  0.502E-03  0.307E-02
  5.240  0.102E-01  0.497E-03  0.308E-02  0.308E-02  0.497E-03  0.308E-02
  5.250  0.103E-01  0.491E-03  0.309E-02  0.309E-02  0.491E-03  0.309E-02
  5.260  0.103E-01  0.486E-03  0.311E-02  0.311E-02  0.486E-03  0.311E-02
  5.270  0.103E-01  0.481E-03  0.313E-02  0.313E-02  0.481E-03  0.313E-02
  5.280  0.104E-01  0.475E-03  0.314E-02  0.314E-02  0.475E-03  0.314E-02
  5.290  0.104E-01  0.470E-03  0.315E-02  0.315E-02  0.470E-03  0.315E-02
  5.300  0.104E-01  0.463E-03  0.316E-02  0.316E-02  0.463E-03  0.316E-02
  5.310  0.104E-01  0.457E-03  0.316E-02  0.316E-02  0.457E-03  0.316E-02
  5.320  0.104E-01  0.450E-03  0.316E-02  0.316E-02  0.450E-03  0.316E-02
  5.330  0.103E-01  0.443E-03  0.315E-02  0.315E-02  0.443E-03  0.315E-02
  5.340  0.103E-01  0.435E-03  0.313E-02  0.313E-02  0.435E-03  0.313E-02
  5.350  0.102E-01  0.427E-03  0.311E-02  0.311E-02  0.427E-03  0.311E-02
  5.360  0.101E-01  0.418E-03  0.308E-02  0.308E-02  0.418E-03  0.308E-02
  5.370  0.994E-02  0.409E-03  0.304E-02  0.304E-02  0.409E-03  0.304E-02
  5.380  0.979E-02  0.399E-03  0.300E-02  0.300E-02  0.399E-03  0.300E-02
  5.390  0.963E-02  0.390E-03  0.295E-02  0.295E-02  0.390E-03  0.295E-02
  5.400  0.946E-02  0.380E-03  0.290E-02  0.290E-02  0.380E-03  0.290E-02
  5.410  0.928E-02  0.371E-03  0.285E-02  0.285E-02  0.371E-03  0.285E-02
  5.420  0.910E-02  0.362E-03  0.279E-02  0.279E-02  0.362E-03  0.279E-02
  5.430  0.892E-02  0.353E-03  0.274E-02  0.274E-02  0.353E-03  0.274E-02
  5.440  0.874E-02  0.344E-03  0.268E-02  0.268E-02  0.344E-03  0.268E-02
  5.450  0.856E-02  0.337E-03  0.263E-02  0.263E-02  0.337E-03  0.263E-02
  5.460  0.840E-02  0.330E-03  0.258E-02  0.258E-02  0.330E-03  0.258E-02
  5.470  0.826E-02  0.324E-03  0.254E-02  0.254E-02  0.324E-03  0.254E-02
  5.480  0.812E-02  0.320E-03  0.249E-02  0.249E-02  0.320E-03  0.249E-02
  5.490  0.801E-02  0.317E-03  0.246E-02  0.246E-02  0.317E-03  0.246E-02
  5.500  0.792E-02  0.316E-03  0.243E-02  0.243E-02  0.316E-03  0.243E-02
  5.510  0.784E-02  0.316E-03  0.240E-02  0.240E-02  0.316E-03  0.240E-02
  5.520  0.780E-02  0.319E-03  0.239E-02  0.239E-02  0.319E-03  0.239E-02
  5.530  0.777E-02  0.323E-03  0.237E-02  0.237E-02  0.323E-03  0.237E-02
  5.540  0.777E-02  0.331E-03  0.237E-02  0.237E-02  0.331E-03  0.237E-02
  5.550  0.778E-02  0.340E-03  0.237E-02  0.237E-02  0.340E-03  0.237E-02
  5.560  0.783E-02  0.353E-03  0.237E-02  0.237E-02  0.353E-03  0.237E-02
  5.570  0.789E-02  0.369E-03  0.238E-02  0.238E-02  0.369E-03  0.238E-02
  5.580  0.797E-02  0.389E-03  0.240E-02  0.240E-02  0.389E-03  0.240E-02
  5.590  0.807E-02  0.412E-03  0.242E-02  0.242E-02  0.412E-03  0.242E-02
  5.600  0.819E-02  0.440E-03  0.244E-02  0.244E-02  0.440E-03  0.244E-02
  5.610  0.832E-02  0.473E-03  0.246E-02  0.246E-02  0.473E-03  0.246E-02
  5.620  0.847E-02  0.511E-03  0.248E-02  0.248E-02  0.511E-03  0.248E-02
  5.630  0.863E-02  0.555E-03  0.251E-02  0.251E-02  0.555E-03  0.251E-02
  5.640  0.879E-02  0.604E-03  0.253E-02  0.253E-02  0.604E-03  0.253E-02
  5.650  0.897E-02  0.660E-03  0.255E-02  0.255E-02  0.660E-03  0.255E-02
  5.660  0.915E-02  0.722E-03  0.257E-02  0.257E-02  0.722E-03  0.257E-02
  5.670  0.934E-02  0.792E-03  0.259E-02  0.259E-02  0.792E-03  0.259E-02
  5.680  0.954E-02  0.868E-03  0.260E-02  0.260E-02  0.868E-03  0.260E-02
  5.690  0.973E-02  0.951E-03  0.261E-02  0.261E-02  0.951E-03  0.261E-02
  5.700  0.993E-02  0.104E-02  0.262E-02  0.262E-02  0.104E-02  0.262E-02
  5.710  0.101E-01  0.114E-02  0.262E-02  0.262E-02  0.114E-02  0.262E-02
  5.720  0.103E-01  0.124E-02  0.262E-02  0.262E-02  0.124E-02  0.262E-02
  5.730  0.105E-01  0.135E-02  0.261E-02  0.261E-02  0.135E-02  0.261E-02
  5.740  0.107E-01  0.147E-02  0.260E-02  0.260E-02  0.147E-02  0.260E-02
  5.750  0.110E-01  0.159E-02  0.259E-02  0.259E-02  0.159E-02  0.259E-02
  5.760  0.112E-01  0.171E-02  0.258E-02  0.258E-02  0.171E-02  0.258E-02
  5.770  0.114E-01  0.184E-02  0.257E-02  0.257E-02  0.184E-02  0.257E-02
  5.780  0.116E-01  0.197E-02  0.255E-02  0.255E-02  0.197E-02  0.255E-02
  5.790  0.118E-01  0.211E-02  0.253E-02  0.253E-02  0.211E-02  0.253E-02
  5.800  0.120E-01  0.225E-02  0.252E-02  0.252E-02  0.225E-02  0.252E-02
  5.810  0.123E-01  0.238E-02  0.250E-02  0.250E-02  0.238E-02  0.250E-02
  5.820  0.125E-01  0.252E-02  0.249E-02  0.249E-02  0.252E-02  0.249E-02
  5.830  0.128E-01  0.266E-02  0.248E-02  0.248E-02  0.266E-02  0.248E-02
  5.840  0.130E-01  0.279E-02  0.247E-02  0.247E-02  0.279E-02  0.247E-02
  5.850  0.133E-01  0.292E-02  0.247E-02  0.247E-02  0.292E-02  0.247E-02
  5.860  0.135E-01  0.305E-02  0.247E-02  0.247E-02  0.305E-02  0.247E-02
  5.870  0.138E-01  0.318E-02  0.248E-02  0.248E-02  0.318E-02  0.248E-02
  5.880  0.141E-01  0.331E-02  0.249E-02  0.249E-02  0.331E-02  0.249E-02
  5.890  0.144E-01  0.342E-02  0.251E-02  0.251E-02  0.342E-02  0.251E-02
  5.900  0.147E-01  0.354E-02  0.254E-02  0.254E-02  0.354E-02  0.254E-02
  5.910  0.150E-01  0.365E-02  0.257E-02  0.257E-02  0.365E-02  0.257E-02
  5.920  0.153E-01  0.375E-02  0.261E-02  0.261E-02  0.375E-02  0.261E-02
  5.930  0.156E-01  0.385E-02  0.265E-02  0.265E-02  0.385E-02  0.265E-02
  5.940  0.160E-01  0.394E-02  0.270E-02  0.270E-02  0.394E-02  0.270E-02
  5.950  0.163E-01  0.403E-02  0.275E-02  0.275E-02  0.403E-02  0.275E-02
  5.960  0.166E-01  0.410E-02  0.281E-02  0.281E-02  0.410E-02  0.281E-02
  5.970  0.169E-01  0.417E-02  0.287E-02  0.287E-02  0.417E-02  0.287E-02
  5.980  0.173E-01  0.423E-02  0.293E-02  0.293E-02  0.423E-02  0.293E-02
  5.990  0.175E-01  0.428E-02  0.299E-02  0.299E-02  0.428E-02  0.299E-02
  6.000  0.178E-01  0.433E-02  0.306E-02  0.306E-02  0.433E-02  0.306E-02
  6.010  0.181E-01  0.436E-02  0.312E-02  0.312E-02  0.436E-02  0.312E-02
  6.020  0.183E-01  0.439E-02  0.318E-02  0.318E-02  0.439E-02  0.318E-02
  6.030  0.185E-01  0.440E-02  0.323E-02  0.323E-02  0.440E-02  0.323E-02
  6.040  0.187E-01  0.441E-02  0.329E-02  0.329E-02  0.441E-02  0.329E-02
  6.050  0.188E-01  0.441E-02  0.333E-02  0.333E-02  0.441E-02  0.333E-02
  6.060  0.189E-01  0.440E-02  0.337E-02  0.337E-02  0.440E-02  0.337E-02
  6.070  0.190E-01  0.438E-02  0.340E-02  0.340E-02  0.438E-02  0.340E-02
  6.080  0.190E-01  0.436E-02  0.343E-02  0.343E-02  0.436E-02  0.343E-02
  6.090  0.190E-01  0.433E-02  0.345E-02  0.345E-02  0.433E-02  0.345E-02
  6.100  0.190E-01  0.430E-02  0.347E-02  0.347E-02  0.430E-02  0.347E-02
  6.110  0.189E-01  0.426E-02  0.347E-02  0.347E-02  0.426E-02  0.347E-02
  6.120  0.189E-01  0.422E-02  0.348E-02  0.348E-02  0.422E-02  0.348E-02
  6.130  0.188E-01  0.417E-02  0.348E-02  0.348E-02  0.417E-02  0.348E-02
  6.140  0.187E-01  0.413E-02  0.347E-02  0.347E-02  0.413E-02  0.347E-02
  6.150  0.186E-01  0.409E-02  0.346E-02  0.346E-02  0.409E-02  0.346E-02
  6.160  0.184E-01  0.404E-02  0.345E-02  0.345E-02  0.404E-02  0.345E-02
  6.170  0.183E-01  0.400E-02  0.343E-02  0.343E-02  0.400E-02  0.343E-02
  6.180  0.182E-01  0.395E-02  0.342E-02  0.342E-02  0.395E-02  0.342E-02
  6.190  0.180E-01  0.391E-02  0.340E-02  0.340E-02  0.391E-02  0.340E-02
  6.200  0.179E-01  0.386E-02  0.338E-02  0.338E-02  0.386E-02  0.338E-02
  6.210  0.177E-01  0.382E-02  0.337E-02  0.337E-02  0.382E-02  0.337E-02
  6.220  0.176E-01  0.378E-02  0.335E-02  0.335E-02  0.378E-02  0.335E-02
  6.230  0.175E-01  0.373E-02  0.334E-02  0.334E-02  0.373E-02  0.334E-02
  6.240  0.174E-01  0.369E-02  0.333E-02  0.333E-02  0.369E-02  0.333E-02
  6.250  0.173E-01  0.365E-02  0.332E-02  0.332E-02  0.365E-02  0.332E-02
  6.260  0.172E-01  0.361E-02  0.331E-02  0.331E-02  0.361E-02  0.331E-02
  6.270  0.171E-01  0.357E-02  0.331E-02  0.331E-02  0.357E-02  0.331E-02
  6.280  0.170E-01  0.354E-02  0.331E-02  0.331E-02  0.354E-02  0.331E-02
  6.290  0.170E-01  0.351E-02  0.332E-02  0.332E-02  0.351E-02  0.332E-02
  6.300  0.169E-01  0.347E-02  0.332E-02  0.332E-02  0.347E-02  0.332E-02
  6.310  0.169E-01  0.345E-02  0.334E-02  0.334E-02  0.345E-02  0.334E-02
  6.320  0.169E-01  0.342E-02  0.336E-02  0.336E-02  0.342E-02  0.336E-02
  6.330  0.170E-01  0.340E-02  0.338E-02  0.338E-02  0.340E-02  0.338E-02
  6.340  0.170E-01  0.339E-02  0.341E-02  0.341E-02  0.339E-02  0.341E-02
  6.350  0.171E-01  0.337E-02  0.345E-02  0.345E-02  0.337E-02  0.345E-02
  6.360  0.172E-01  0.337E-02  0.349E-02  0.349E-02  0.337E-02  0.349E-02
  6.370  0.173E-01  0.336E-02  0.353E-02  0.353E-02  0.336E-02  0.353E-02
  6.380  0.174E-01  0.336E-02  0.358E-02  0.358E-02  0.336E-02  0.358E-02
  6.390  0.176E-01  0.335E-02  0.363E-02  0.363E-02  0.335E-02  0.363E-02
  6.400  0.178E-01  0.335E-02  0.368E-02  0.368E-02  0.335E-02  0.368E-02
  6.410  0.179E-01  0.335E-02  0.374E-02  0.374E-02  0.335E-02  0.374E-02
  6.420  0.181E-01  0.336E-02  0.380E-02  0.380E-02  0.336E-02  0.380E-02
  6.430  0.183E-01  0.336E-02  0.385E-02  0.385E-02  0.336E-02  0.385E-02
  6.440  0.184E-01  0.336E-02  0.391E-02  0.391E-02  0.336E-02  0.391E-02
  6.450  0.186E-01  0.336E-02  0.397E-02  0.397E-02  0.336E-02  0.397E-02
  6.460  0.188E-01  0.335E-02  0.402E-02  0.402E-02  0.335E-02  0.402E-02
  6.470  0.189E-01  0.335E-02  0.407E-02  0.407E-02  0.335E-02  0.407E-02
  6.480  0.190E-01  0.335E-02  0.412E-02  0.412E-02  0.335E-02  0.412E-02
  6.490  0.192E-01  0.334E-02  0.416E-02  0.416E-02  0.334E-02  0.416E-02
  6.500  0.193E-01  0.333E-02  0.420E-02  0.420E-02  0.333E-02  0.420E-02
  6.510  0.193E-01  0.332E-02  0.424E-02  0.424E-02  0.332E-02  0.424E-02
  6.520  0.194E-01  0.331E-02  0.427E-02  0.427E-02  0.331E-02  0.427E-02
  6.530  0.195E-01  0.329E-02  0.429E-02  0.429E-02  0.329E-02  0.429E-02
  6.540  0.195E-01  0.328E-02  0.432E-02  0.432E-02  0.328E-02  0.432E-02
  6.550  0.195E-01  0.327E-02  0.434E-02  0.434E-02  0.327E-02  0.434E-02
  6.560  0.196E-01  0.325E-02  0.435E-02  0.435E-02  0.325E-02  0.435E-02
  6.570  0.196E-01  0.323E-02  0.437E-02  0.437E-02  0.323E-02  0.437E-02
  6.580  0.196E-01  0.322E-02  0.438E-02  0.438E-02  0.322E-02  0.438E-02
  6.590  0.196E-01  0.320E-02  0.439E-02  0.439E-02  0.320E-02  0.439E-02
  6.600  0.195E-01  0.318E-02  0.439E-02  0.439E-02  0.318E-02  0.439E-02
  6.610  0.195E-01  0.317E-02  0.440E-02  0.440E-02  0.317E-02  0.440E-02
  6.620  0.195E-01  0.315E-02  0.441E-02  0.441E-02  0.315E-02  0.441E-02
  6.630  0.196E-01  0.314E-02  0.443E-02  0.443E-02  0.314E-02  0.443E-02
  6.640  0.196E-01  0.313E-02  0.444E-02  0.444E-02  0.313E-02  0.444E-02
  6.650  0.196E-01  0.312E-02  0.446E-02  0.446E-02  0.312E-02  0.446E-02
  6.660  0.197E-01  0.311E-02  0.449E-02  0.449E-02  0.311E-02  0.449E-02
  6.670  0.198E-01  0.311E-02  0.452E-02  0.452E-02  0.311E-02  0.452E-02
  6.680  0.199E-01  0.311E-02  0.456E-02  0.456E-02  0.311E-02  0.456E-02
  6.690  0.200E-01  0.311E-02  0.461E-02  0.461E-02  0.311E-02  0.461E-02
  6.700  0.202E-01  0.312E-02  0.466E-02  0.466E-02  0.312E-02  0.466E-02
  6.710  0.204E-01  0.313E-02  0.472E-02  0.472E-02  0.313E-02  0.472E-02
  6.720  0.207E-01  0.314E-02  0.479E-02  0.479E-02  0.314E-02  0.479E-02
  6.730  0.209E-01  0.315E-02  0.487E-02  0.487E-02  0.315E-02  0.487E-02
  6.740  0.212E-01  0.316E-02  0.495E-02  0.495E-02  0.316E-02  0.495E-02
  6.750  0.215E-01  0.318E-02  0.505E-02  0.505E-02  0.318E-02  0.505E-02
  6.760  0.218E-01  0.319E-02  0.514E-02  0.514E-02  0.319E-02  0.514E-02
  6.770  0.221E-01  0.320E-02  0.524E-02  0.524E-02  0.320E-02  0.524E-02
  6.780  0.225E-01  0.321E-02  0.534E-02  0.534E-02  0.321E-02  0.534E-02
  6.790  0.228E-01  0.322E-02  0.545E-02  0.545E-02  0.322E-02  0.545E-02
  6.800  0.231E-01  0.323E-02  0.556E-02  0.556E-02  0.323E-02  0.556E-02
  6.810  0.234E-01  0.323E-02  0.566E-02  0.566E-02  0.323E-02  0.566E-02
  6.820  0.237E-01  0.323E-02  0.576E-02  0.576E-02  0.323E-02  0.576E-02
  6.830  0.240E-01  0.322E-02  0.586E-02  0.586E-02  0.322E-02  0.586E-02
  6.840  0.243E-01  0.321E-02  0.596E-02  0.596E-02  0.321E-02  0.596E-02
  6.850  0.245E-01  0.320E-02  0.604E-02  0.604E-02  0.320E-02  0.604E-02
  6.860  0.247E-01  0.318E-02  0.613E-02  0.613E-02  0.318E-02  0.613E-02
  6.870  0.249E-01  0.317E-02  0.620E-02  0.620E-02  0.317E-02  0.620E-02
  6.880  0.251E-01  0.315E-02  0.627E-02  0.627E-02  0.315E-02  0.627E-02
  6.890  0.252E-01  0.313E-02  0.633E-02  0.633E-02  0.313E-02  0.633E-02
  6.900  0.253E-01  0.310E-02  0.638E-02  0.638E-02  0.310E-02  0.638E-02
  6.910  0.254E-01  0.308E-02  0.642E-02  0.642E-02  0.308E-02  0.642E-02
  6.920  0.255E-01  0.306E-02  0.646E-02  0.646E-02  0.306E-02  0.646E-02
  6.930  0.256E-01  0.304E-02  0.649E-02  0.649E-02  0.304E-02  0.649E-02
  6.940  0.256E-01  0.302E-02  0.652E-02  0.652E-02  0.302E-02  0.652E-02
  6.950  0.257E-01  0.301E-02  0.655E-02  0.655E-02  0.301E-02  0.655E-02
  6.960  0.257E-01  0.300E-02  0.657E-02  0.657E-02  0.300E-02  0.657E-02
  6.970  0.257E-01  0.299E-02  0.659E-02  0.659E-02  0.299E-02  0.659E-02
  6.980  0.258E-01  0.298E-02  0.661E-02  0.661E-02  0.298E-02  0.661E-02
  6.990  0.259E-01  0.298E-02  0.664E-02  0.664E-02  0.298E-02  0.664E-02
  7.000  0.259E-01  0.298E-02  0.666E-02  0.666E-02  0.298E-02  0.666E-02
  7.010  0.260E-01  0.298E-02  0.669E-02  0.669E-02  0.298E-02  0.669E-02
  7.020  0.262E-01  0.299E-02  0.673E-02  0.673E-02  0.299E-02  0.673E-02
  7.030  0.263E-01  0.299E-02  0.676E-02  0.676E-02  0.299E-02  0.676E-02
  7.040  0.264E-01  0.300E-02  0.681E-02  0.681E-02  0.300E-02  0.681E-02
  7.050  0.266E-01  0.301E-02  0.685E-02  0.685E-02  0.301E-02  0.685E-02
  7.060  0.267E-01  0.302E-02  0.690E-02  0.690E-02  0.302E-02  0.690E-02
  7.070  0.269E-01  0.303E-02  0.695E-02  0.695E-02  0.303E-02  0.695E-02
  7.080  0.271E-01  0.303E-02  0.700E-02  0.700E-02  0.303E-02  0.700E-02
  7.090  0.273E-01  0.304E-02  0.706E-02  0.706E-02  0.304E-02  0.706E-02
  7.100  0.274E-01  0.305E-02  0.711E-02  0.711E-02  0.305E-02  0.711E-02
  7.110  0.276E-01  0.305E-02  0.717E-02  0.717E-02  0.305E-02  0.717E-02
  7.120  0.278E-01  0.306E-02  0.723E-02  0.723E-02  0.306E-02  0.723E-02
  7.130  0.280E-01  0.306E-02  0.728E-02  0.728E-02  0.306E-02  0.728E-02
  7.140  0.281E-01  0.306E-02  0.734E-02  0.734E-02  0.306E-02  0.734E-02
  7.150  0.283E-01  0.306E-02  0.739E-02  0.739E-02  0.306E-02  0.739E-02
  7.160  0.284E-01  0.306E-02  0.744E-02  0.744E-02  0.306E-02  0.744E-02
  7.170  0.286E-01  0.306E-02  0.749E-02  0.749E-02  0.306E-02  0.749E-02
  7.180  0.287E-01  0.305E-02  0.754E-02  0.754E-02  0.305E-02  0.754E-02
  7.190  0.288E-01  0.305E-02  0.758E-02  0.758E-02  0.305E-02  0.758E-02
  7.200  0.290E-01  0.305E-02  0.762E-02  0.762E-02  0.305E-02  0.762E-02
  7.210  0.291E-01  0.304E-02  0.766E-02  0.766E-02  0.304E-02  0.766E-02
  7.220  0.292E-01  0.304E-02  0.770E-02  0.770E-02  0.304E-02  0.770E-02
  7.230  0.293E-01  0.303E-02  0.773E-02  0.773E-02  0.303E-02  0.773E-02
  7.240  0.293E-01  0.303E-02  0.776E-02  0.776E-02  0.303E-02  0.776E-02
  7.250  0.294E-01  0.302E-02  0.778E-02  0.778E-02  0.302E-02  0.778E-02
  7.260  0.294E-01  0.301E-02  0.780E-02  0.780E-02  0.301E-02  0.780E-02
  7.270  0.295E-01  0.300E-02  0.782E-02  0.782E-02  0.300E-02  0.782E-02
  7.280  0.295E-01  0.299E-02  0.783E-02  0.783E-02  0.299E-02  0.783E-02
  7.290  0.295E-01  0.297E-02  0.785E-02  0.785E-02  0.297E-02  0.785E-02
  7.300  0.295E-01  0.296E-02  0.786E-02  0.786E-02  0.296E-02  0.786E-02
  7.310  0.295E-01  0.294E-02  0.787E-02  0.787E-02  0.294E-02  0.787E-02
  7.320  0.295E-01  0.292E-02  0.789E-02  0.789E-02  0.292E-02  0.789E-02
  7.330  0.295E-01  0.291E-02  0.791E-02  0.791E-02  0.291E-02  0.791E-02
  7.340  0.296E-01  0.289E-02  0.793E-02  0.793E-02  0.289E-02  0.793E-02
  7.350  0.296E-01  0.288E-02  0.796E-02  0.796E-02  0.288E-02  0.796E-02
  7.360  0.297E-01  0.286E-02  0.799E-02  0.799E-02  0.286E-02  0.799E-02
  7.370  0.298E-01  0.285E-02  0.803E-02  0.803E-02  0.285E-02  0.803E-02
  7.380  0.299E-01  0.284E-02  0.808E-02  0.808E-02  0.284E-02  0.808E-02
  7.390  0.301E-01  0.284E-02  0.814E-02  0.814E-02  0.284E-02  0.814E-02
  7.400  0.303E-01  0.283E-02  0.820E-02  0.820E-02  0.283E-02  0.820E-02
  7.410  0.305E-01  0.283E-02  0.827E-02  0.827E-02  0.283E-02  0.827E-02
  7.420  0.307E-01  0.284E-02  0.835E-02  0.835E-02  0.284E-02  0.835E-02
  7.430  0.310E-01  0.285E-02  0.843E-02  0.843E-02  0.285E-02  0.843E-02
  7.440  0.313E-01  0.286E-02  0.851E-02  0.851E-02  0.286E-02  0.851E-02
  7.450  0.315E-01  0.287E-02  0.859E-02  0.859E-02  0.287E-02  0.859E-02
  7.460  0.318E-01  0.288E-02  0.867E-02  0.867E-02  0.288E-02  0.867E-02
  7.470  0.320E-01  0.290E-02  0.875E-02  0.875E-02  0.290E-02  0.875E-02
  7.480  0.323E-01  0.291E-02  0.882E-02  0.882E-02  0.291E-02  0.882E-02
  7.490  0.325E-01  0.293E-02  0.889E-02  0.889E-02  0.293E-02  0.889E-02
  7.500  0.327E-01  0.294E-02  0.894E-02  0.894E-02  0.294E-02  0.894E-02
  7.510  0.329E-01  0.295E-02  0.899E-02  0.899E-02  0.295E-02  0.899E-02
  7.520  0.330E-01  0.295E-02  0.903E-02  0.903E-02  0.295E-02  0.903E-02
  7.530  0.331E-01  0.296E-02  0.906E-02  0.906E-02  0.296E-02  0.906E-02
  7.540  0.332E-01  0.296E-02  0.909E-02  0.909E-02  0.296E-02  0.909E-02
  7.550  0.332E-01  0.296E-02  0.910E-02  0.910E-02  0.296E-02  0.910E-02
  7.560  0.332E-01  0.295E-02  0.911E-02  0.911E-02  0.295E-02  0.911E-02
  7.570  0.332E-01  0.294E-02  0.912E-02  0.912E-02  0.294E-02  0.912E-02
  7.580  0.332E-01  0.293E-02  0.912E-02  0.912E-02  0.293E-02  0.912E-02
  7.590  0.332E-01  0.292E-02  0.913E-02  0.913E-02  0.292E-02  0.913E-02
  7.600  0.332E-01  0.290E-02  0.913E-02  0.913E-02  0.290E-02  0.913E-02
  7.610  0.332E-01  0.288E-02  0.914E-02  0.914E-02  0.288E-02  0.914E-02
  7.620  0.332E-01  0.287E-02  0.915E-02  0.915E-02  0.287E-02  0.915E-02
  7.630  0.332E-01  0.285E-02  0.916E-02  0.916E-02  0.285E-02  0.916E-02
  7.640  0.332E-01  0.283E-02  0.919E-02  0.919E-02  0.283E-02  0.919E-02
  7.650  0.333E-01  0.282E-02  0.922E-02  0.922E-02  0.282E-02  0.922E-02
  7.660  0.334E-01  0.281E-02  0.925E-02  0.925E-02  0.281E-02  0.925E-02
  7.670  0.335E-01  0.279E-02  0.929E-02  0.929E-02  0.279E-02  0.929E-02
  7.680  0.336E-01  0.278E-02  0.935E-02  0.935E-02  0.278E-02  0.935E-02
  7.690  0.338E-01  0.278E-02  0.940E-02  0.940E-02  0.278E-02  0.940E-02
  7.700  0.339E-01  0.277E-02  0.947E-02  0.947E-02  0.277E-02  0.947E-02
  7.710  0.341E-01  0.277E-02  0.954E-02  0.954E-02  0.277E-02  0.954E-02
  7.720  0.344E-01  0.276E-02  0.961E-02  0.961E-02  0.276E-02  0.961E-02
  7.730  0.346E-01  0.276E-02  0.969E-02  0.969E-02  0.276E-02  0.969E-02
  7.740  0.348E-01  0.276E-02  0.977E-02  0.977E-02  0.276E-02  0.977E-02
  7.750  0.351E-01  0.277E-02  0.985E-02  0.985E-02  0.277E-02  0.985E-02
  7.760  0.353E-01  0.277E-02  0.993E-02  0.993E-02  0.277E-02  0.993E-02
  7.770  0.356E-01  0.277E-02  0.100E-01  0.100E-01  0.277E-02  0.100E-01
  7.780  0.358E-01  0.278E-02  0.101E-01  0.101E-01  0.278E-02  0.101E-01
  7.790  0.360E-01  0.278E-02  0.102E-01  0.102E-01  0.278E-02  0.102E-01
  7.800  0.363E-01  0.278E-02  0.102E-01  0.102E-01  0.278E-02  0.102E-01
  7.810  0.365E-01  0.279E-02  0.103E-01  0.103E-01  0.279E-02  0.103E-01
  7.820  0.367E-01  0.279E-02  0.104E-01  0.104E-01  0.279E-02  0.104E-01
  7.830  0.368E-01  0.279E-02  0.104E-01  0.104E-01  0.279E-02  0.104E-01
  7.840  0.370E-01  0.279E-02  0.105E-01  0.105E-01  0.279E-02  0.105E-01
  7.850  0.371E-01  0.279E-02  0.105E-01  0.105E-01  0.279E-02  0.105E-01
  7.860  0.373E-01  0.279E-02  0.106E-01  0.106E-01  0.279E-02  0.106E-01
  7.870  0.374E-01  0.279E-02  0.106E-01  0.106E-01  0.279E-02  0.106E-01
  7.880  0.375E-01  0.279E-02  0.106E-01  0.106E-01  0.279E-02  0.106E-01
  7.890  0.375E-01  0.278E-02  0.107E-01  0.107E-01  0.278E-02  0.107E-01
  7.900  0.376E-01  0.278E-02  0.107E-01  0.107E-01  0.278E-02  0.107E-01
  7.910  0.377E-01  0.277E-02  0.107E-01  0.107E-01  0.277E-02  0.107E-01
  7.920  0.378E-01  0.277E-02  0.107E-01  0.107E-01  0.277E-02  0.107E-01
  7.930  0.378E-01  0.276E-02  0.108E-01  0.108E-01  0.276E-02  0.108E-01
  7.940  0.379E-01  0.275E-02  0.108E-01  0.108E-01  0.275E-02  0.108E-01
  7.950  0.380E-01  0.274E-02  0.108E-01  0.108E-01  0.274E-02  0.108E-01
  7.960  0.381E-01  0.274E-02  0.109E-01  0.109E-01  0.274E-02  0.109E-01
  7.970  0.382E-01  0.273E-02  0.109E-01  0.109E-01  0.273E-02  0.109E-01
  7.980  0.383E-01  0.272E-02  0.110E-01  0.110E-01  0.272E-02  0.110E-01
  7.990  0.384E-01  0.271E-02  0.110E-01  0.110E-01  0.271E-02  0.110E-01
  8.000  0.386E-01  0.270E-02  0.111E-01  0.111E-01  0.270E-02  0.111E-01
  8.010  0.387E-01  0.269E-02  0.111E-01  0.111E-01  0.269E-02  0.111E-01
  8.020  0.389E-01  0.269E-02  0.112E-01  0.112E-01  0.269E-02  0.112E-01
  8.030  0.390E-01  0.268E-02  0.112E-01  0.112E-01  0.268E-02  0.112E-01
  8.040  0.392E-01  0.267E-02  0.113E-01  0.113E-01  0.267E-02  0.113E-01
  8.050  0.394E-01  0.266E-02  0.113E-01  0.113E-01  0.266E-02  0.113E-01
  8.060  0.395E-01  0.265E-02  0.114E-01  0.114E-01  0.265E-02  0.114E-01
  8.070  0.396E-01  0.264E-02  0.114E-01  0.114E-01  0.264E-02  0.114E-01
  8.080  0.397E-01  0.263E-02  0.115E-01  0.115E-01  0.263E-02  0.115E-01
  8.090  0.398E-01  0.262E-02  0.115E-01  0.115E-01  0.262E-02  0.115E-01
  8.100  0.399E-01  0.260E-02  0.116E-01  0.116E-01  0.260E-02  0.116E-01
  8.110  0.399E-01  0.259E-02  0.116E-01  0.116E-01  0.259E-02  0.116E-01
  8.120  0.398E-01  0.257E-02  0.116E-01  0.116E-01  0.257E-02  0.116E-01
  8.130  0.398E-01  0.254E-02  0.116E-01  0.116E-01  0.254E-02  0.116E-01
  8.140  0.397E-01  0.252E-02  0.115E-01  0.115E-01  0.252E-02  0.115E-01
  8.150  0.395E-01  0.249E-02  0.115E-01  0.115E-01  0.249E-02  0.115E-01
  8.160  0.393E-01  0.246E-02  0.115E-01  0.115E-01  0.246E-02  0.115E-01
  8.170  0.391E-01  0.243E-02  0.114E-01  0.114E-01  0.243E-02  0.114E-01
  8.180  0.388E-01  0.239E-02  0.113E-01  0.113E-01  0.239E-02  0.113E-01
  8.190  0.385E-01  0.235E-02  0.113E-01  0.113E-01  0.235E-02  0.113E-01
  8.200  0.381E-01  0.231E-02  0.112E-01  0.112E-01  0.231E-02  0.112E-01
  8.210  0.377E-01  0.226E-02  0.111E-01  0.111E-01  0.226E-02  0.111E-01
  8.220  0.373E-01  0.222E-02  0.110E-01  0.110E-01  0.222E-02  0.110E-01
  8.230  0.368E-01  0.217E-02  0.108E-01  0.108E-01  0.217E-02  0.108E-01
  8.240  0.364E-01  0.212E-02  0.107E-01  0.107E-01  0.212E-02  0.107E-01
  8.250  0.359E-01  0.206E-02  0.106E-01  0.106E-01  0.206E-02  0.106E-01
  8.260  0.354E-01  0.201E-02  0.105E-01  0.105E-01  0.201E-02  0.105E-01
  8.270  0.349E-01  0.196E-02  0.103E-01  0.103E-01  0.196E-02  0.103E-01
  8.280  0.344E-01  0.190E-02  0.102E-01  0.102E-01  0.190E-02  0.102E-01
  8.290  0.339E-01  0.185E-02  0.101E-01  0.101E-01  0.185E-02  0.101E-01
  8.300  0.335E-01  0.180E-02  0.995E-02  0.995E-02  0.180E-02  0.995E-02
  8.310  0.330E-01  0.175E-02  0.982E-02  0.982E-02  0.175E-02  0.982E-02
  8.320  0.325E-01  0.169E-02  0.970E-02  0.970E-02  0.169E-02  0.970E-02
  8.330  0.320E-01  0.164E-02  0.957E-02  0.957E-02  0.164E-02  0.957E-02
  8.340  0.315E-01  0.159E-02  0.945E-02  0.945E-02  0.159E-02  0.945E-02
  8.350  0.311E-01  0.155E-02  0.933E-02  0.933E-02  0.155E-02  0.933E-02
  8.360  0.306E-01  0.150E-02  0.921E-02  0.921E-02  0.150E-02  0.921E-02
  8.370  0.302E-01  0.145E-02  0.909E-02  0.909E-02  0.145E-02  0.909E-02
  8.380  0.297E-01  0.141E-02  0.897E-02  0.897E-02  0.141E-02  0.897E-02
  8.390  0.293E-01  0.137E-02  0.886E-02  0.886E-02  0.137E-02  0.886E-02
  8.400  0.289E-01  0.132E-02  0.874E-02  0.874E-02  0.132E-02  0.874E-02
  8.410  0.284E-01  0.128E-02  0.863E-02  0.863E-02  0.128E-02  0.863E-02
  8.420  0.280E-01  0.124E-02  0.852E-02  0.852E-02  0.124E-02  0.852E-02
  8.430  0.276E-01  0.121E-02  0.841E-02  0.841E-02  0.121E-02  0.841E-02
  8.440  0.272E-01  0.117E-02  0.830E-02  0.830E-02  0.117E-02  0.830E-02
  8.450  0.268E-01  0.113E-02  0.819E-02  0.819E-02  0.113E-02  0.819E-02
  8.460  0.265E-01  0.110E-02  0.809E-02  0.809E-02  0.110E-02  0.809E-02
  8.470  0.261E-01  0.107E-02  0.799E-02  0.799E-02  0.107E-02  0.799E-02
  8.480  0.257E-01  0.103E-02  0.789E-02  0.789E-02  0.103E-02  0.789E-02
  8.490  0.254E-01  0.100E-02  0.780E-02  0.780E-02  0.100E-02  0.780E-02
  8.500  0.251E-01  0.969E-03  0.770E-02  0.770E-02  0.969E-03  0.770E-02
  8.510  0.247E-01  0.939E-03  0.761E-02  0.761E-02  0.939E-03  0.761E-02
  8.520  0.244E-01  0.909E-03  0.753E-02  0.753E-02  0.909E-03  0.753E-02
  8.530  0.241E-01  0.880E-03  0.744E-02  0.744E-02  0.880E-03  0.744E-02
  8.540  0.238E-01  0.851E-03  0.736E-02  0.736E-02  0.851E-03  0.736E-02
  8.550  0.235E-01  0.823E-03  0.727E-02  0.727E-02  0.823E-03  0.727E-02
  8.560  0.232E-01  0.796E-03  0.719E-02  0.719E-02  0.796E-03  0.719E-02
  8.570  0.229E-01  0.769E-03  0.711E-02  0.711E-02  0.769E-03  0.711E-02
  8.580  0.226E-01  0.743E-03  0.703E-02  0.703E-02  0.743E-03  0.703E-02
  8.590  0.223E-01  0.717E-03  0.694E-02  0.694E-02  0.717E-03  0.694E-02
  8.600  0.220E-01  0.692E-03  0.686E-02  0.686E-02  0.692E-03  0.686E-02
  8.610  0.217E-01  0.667E-03  0.677E-02  0.677E-02  0.667E-03  0.677E-02
  8.620  0.213E-01  0.642E-03  0.669E-02  0.669E-02  0.642E-03  0.669E-02
  8.630  0.210E-01  0.618E-03  0.660E-02  0.660E-02  0.618E-03  0.660E-02
  8.640  0.207E-01  0.595E-03  0.651E-02  0.651E-02  0.595E-03  0.651E-02
  8.650  0.204E-01  0.572E-03  0.641E-02  0.641E-02  0.572E-03  0.641E-02
  8.660  0.201E-01  0.549E-03  0.632E-02  0.632E-02  0.549E-03  0.632E-02
  8.670  0.197E-01  0.527E-03  0.623E-02  0.623E-02  0.527E-03  0.623E-02
  8.680  0.194E-01  0.505E-03  0.613E-02  0.613E-02  0.505E-03  0.613E-02
  8.690  0.191E-01  0.484E-03  0.603E-02  0.603E-02  0.484E-03  0.603E-02
  8.700  0.187E-01  0.463E-03  0.593E-02  0.593E-02  0.463E-03  0.593E-02
  8.710  0.184E-01  0.442E-03  0.583E-02  0.583E-02  0.442E-03  0.583E-02
  8.720  0.180E-01  0.422E-03  0.573E-02  0.573E-02  0.422E-03  0.573E-02
  8.730  0.177E-01  0.402E-03  0.562E-02  0.562E-02  0.402E-03  0.562E-02
  8.740  0.173E-01  0.383E-03  0.552E-02  0.552E-02  0.383E-03  0.552E-02
  8.750  0.170E-01  0.364E-03  0.541E-02  0.541E-02  0.364E-03  0.541E-02
  8.760  0.166E-01  0.345E-03  0.530E-02  0.530E-02  0.345E-03  0.530E-02
  8.770  0.162E-01  0.327E-03  0.519E-02  0.519E-02  0.327E-03  0.519E-02
  8.780  0.159E-01  0.310E-03  0.508E-02  0.508E-02  0.310E-03  0.508E-02
  8.790  0.155E-01  0.292E-03  0.496E-02  0.496E-02  0.292E-03  0.496E-02
  8.800  0.151E-01  0.275E-03  0.484E-02  0.484E-02  0.275E-03  0.484E-02
  8.810  0.147E-01  0.259E-03  0.472E-02  0.472E-02  0.259E-03  0.472E-02
  8.820  0.143E-01  0.243E-03  0.459E-02  0.459E-02  0.243E-03  0.459E-02
  8.830  0.138E-01  0.227E-03  0.446E-02  0.446E-02  0.227E-03  0.446E-02
  8.840  0.134E-01  0.212E-03  0.432E-02  0.432E-02  0.212E-03  0.432E-02
  8.850  0.129E-01  0.197E-03  0.418E-02  0.418E-02  0.197E-03  0.418E-02
  8.860  0.125E-01  0.183E-03  0.403E-02  0.403E-02  0.183E-03  0.403E-02
  8.870  0.120E-01  0.169E-03  0.388E-02  0.388E-02  0.169E-03  0.388E-02
  8.880  0.115E-01  0.156E-03  0.372E-02  0.372E-02  0.156E-03  0.372E-02
  8.890  0.110E-01  0.143E-03  0.356E-02  0.356E-02  0.143E-03  0.356E-02
  8.900  0.104E-01  0.131E-03  0.339E-02  0.339E-02  0.131E-03  0.339E-02
  8.910  0.991E-02  0.119E-03  0.322E-02  0.322E-02  0.119E-03  0.322E-02
  8.920  0.937E-02  0.108E-03  0.305E-02  0.305E-02  0.108E-03  0.305E-02
  8.930  0.882E-02  0.978E-04  0.287E-02  0.287E-02  0.978E-04  0.287E-02
  8.940  0.826E-02  0.880E-04  0.270E-02  0.270E-02  0.880E-04  0.270E-02
  8.950  0.771E-02  0.788E-04  0.252E-02  0.252E-02  0.788E-04  0.252E-02
  8.960  0.716E-02  0.702E-04  0.234E-02  0.234E-02  0.702E-04  0.234E-02
  8.970  0.661E-02  0.623E-04  0.216E-02  0.216E-02  0.623E-04  0.216E-02
  8.980  0.608E-02  0.549E-04  0.199E-02  0.199E-02  0.549E-04  0.199E-02
  8.990  0.555E-02  0.482E-04  0.182E-02  0.182E-02  0.482E-04  0.182E-02
  9.000  0.505E-02  0.421E-04  0.165E-02  0.165E-02  0.421E-04  0.165E-02
  9.010  0.456E-02  0.365E-04  0.150E-02  0.150E-02  0.365E-04  0.150E-02
  9.020  0.409E-02  0.315E-04  0.134E-02  0.134E-02  0.315E-04  0.134E-02
  9.030  0.365E-02  0.271E-04  0.120E-02  0.120E-02  0.271E-04  0.120E-02
  9.040  0.324E-02  0.231E-04  0.106E-02  0.106E-02  0.231E-04  0.106E-02
  9.050  0.285E-02  0.196E-04  0.937E-03  0.937E-03  0.196E-04  0.937E-03
  9.060  0.249E-02  0.165E-04  0.820E-03  0.820E-03  0.165E-04  0.820E-03
  9.070  0.217E-02  0.138E-04  0.713E-03  0.713E-03  0.138E-04  0.713E-03
  9.080  0.187E-02  0.115E-04  0.615E-03  0.615E-03  0.115E-04  0.615E-03
  9.090  0.160E-02  0.947E-05  0.528E-03  0.528E-03  0.947E-05  0.528E-03
  9.100  0.136E-02  0.776E-05  0.450E-03  0.450E-03  0.776E-05  0.450E-03
  9.110  0.115E-02  0.632E-05  0.381E-03  0.381E-03  0.632E-05  0.381E-03
  9.120  0.972E-03  0.511E-05  0.321E-03  0.321E-03  0.511E-05  0.321E-03
  9.130  0.814E-03  0.410E-05  0.269E-03  0.269E-03  0.410E-05  0.269E-03
  9.140  0.680E-03  0.327E-05  0.224E-03  0.224E-03  0.327E-05  0.224E-03
  9.150  0.566E-03  0.259E-05  0.187E-03  0.187E-03  0.259E-05  0.187E-03
  9.160  0.472E-03  0.203E-05  0.156E-03  0.156E-03  0.203E-05  0.156E-03
  9.170  0.396E-03  0.159E-05  0.131E-03  0.131E-03  0.159E-05  0.131E-03
  9.180  0.334E-03  0.124E-05  0.111E-03  0.111E-03  0.124E-05  0.111E-03
  9.190  0.286E-03  0.956E-06  0.946E-04  0.946E-04  0.956E-06  0.946E-04
  9.200  0.248E-03  0.739E-06  0.823E-04  0.823E-04  0.739E-06  0.823E-04
  9.210  0.221E-03  0.573E-06  0.732E-04  0.732E-04  0.573E-06  0.732E-04
  9.220  0.201E-03  0.447E-06  0.667E-04  0.667E-04  0.447E-06  0.667E-04
  9.230  0.188E-03  0.355E-06  0.624E-04  0.624E-04  0.355E-06  0.624E-04
  9.240  0.180E-03  0.289E-06  0.598E-04  0.598E-04  0.289E-06  0.598E-04
  9.250  0.176E-03  0.244E-06  0.584E-04  0.584E-04  0.244E-06  0.584E-04
  9.260  0.175E-03  0.215E-06  0.581E-04  0.581E-04  0.215E-06  0.581E-04
  9.270  0.176E-03  0.199E-06  0.584E-04  0.584E-04  0.199E-06  0.584E-04
  9.280  0.178E-03  0.193E-06  0.592E-04  0.592E-04  0.193E-06  0.592E-04
  9.290  0.181E-03  0.194E-06  0.602E-04  0.602E-04  0.194E-06  0.602E-04
  9.300  0.184E-03  0.200E-06  0.612E-04  0.612E-04  0.200E-06  0.612E-04
  9.310  0.187E-03  0.211E-06  0.622E-04  0.622E-04  0.211E-06  0.622E-04
  9.320  0.189E-03  0.224E-06  0.630E-04  0.630E-04  0.224E-06  0.630E-04
  9.330  0.191E-03  0.239E-06  0.636E-04  0.636E-04  0.239E-06  0.636E-04
  9.340  0.192E-03  0.254E-06  0.639E-04  0.639E-04  0.254E-06  0.639E-04
  9.350  0.192E-03  0.269E-06  0.639E-04  0.639E-04  0.269E-06  0.639E-04
  9.360  0.191E-03  0.284E-06  0.636E-04  0.636E-04  0.284E-06  0.636E-04
  9.370  0.190E-03  0.298E-06  0.631E-04  0.631E-04  0.298E-06  0.631E-04
  9.380  0.187E-03  0.310E-06  0.623E-04  0.623E-04  0.310E-06  0.623E-04
  9.390  0.185E-03  0.320E-06  0.614E-04  0.614E-04  0.320E-06  0.614E-04
  9.400  0.182E-03  0.329E-06  0.603E-04  0.603E-04  0.329E-06  0.603E-04
  9.410  0.178E-03  0.336E-06  0.592E-04  0.592E-04  0.336E-06  0.592E-04
  9.420  0.175E-03  0.342E-06  0.582E-04  0.582E-04  0.342E-06  0.582E-04
  9.430  0.172E-03  0.347E-06  0.572E-04  0.572E-04  0.347E-06  0.572E-04
  9.440  0.170E-03  0.351E-06  0.564E-04  0.564E-04  0.351E-06  0.564E-04
  9.450  0.168E-03  0.355E-06  0.558E-04  0.558E-04  0.355E-06  0.558E-04
  9.460  0.167E-03  0.359E-06  0.556E-04  0.556E-04  0.359E-06  0.556E-04
  9.470  0.168E-03  0.365E-06  0.556E-04  0.556E-04  0.365E-06  0.556E-04
  9.480  0.169E-03  0.373E-06  0.560E-04  0.560E-04  0.373E-06  0.560E-04
  9.490  0.171E-03  0.382E-06  0.568E-04  0.568E-04  0.382E-06  0.568E-04
  9.500  0.175E-03  0.395E-06  0.580E-04  0.580E-04  0.395E-06  0.580E-04
  9.510  0.180E-03  0.412E-06  0.597E-04  0.597E-04  0.412E-06  0.597E-04
  9.520  0.186E-03  0.434E-06  0.617E-04  0.617E-04  0.434E-06  0.617E-04
  9.530  0.193E-03  0.460E-06  0.641E-04  0.641E-04  0.460E-06  0.641E-04
  9.540  0.202E-03  0.491E-06  0.669E-04  0.669E-04  0.491E-06  0.669E-04
  9.550  0.211E-03  0.529E-06  0.701E-04  0.701E-04  0.529E-06  0.701E-04
  9.560  0.222E-03  0.572E-06  0.736E-04  0.736E-04  0.572E-06  0.736E-04
  9.570  0.233E-03  0.622E-06  0.773E-04  0.773E-04  0.622E-06  0.773E-04
  9.580  0.245E-03  0.677E-06  0.813E-04  0.813E-04  0.677E-06  0.813E-04
  9.590  0.258E-03  0.739E-06  0.855E-04  0.855E-04  0.739E-06  0.855E-04
  9.600  0.271E-03  0.806E-06  0.898E-04  0.898E-04  0.806E-06  0.898E-04
  9.610  0.284E-03  0.877E-06  0.941E-04  0.941E-04  0.877E-06  0.941E-04
  9.620  0.297E-03  0.952E-06  0.985E-04  0.985E-04  0.952E-06  0.985E-04
  9.630  0.311E-03  0.103E-05  0.103E-03  0.103E-03  0.103E-05  0.103E-03
  9.640  0.323E-03  0.111E-05  0.107E-03  0.107E-03  0.111E-05  0.107E-03
  9.650  0.335E-03  0.119E-05  0.111E-03  0.111E-03  0.119E-05  0.111E-03
  9.660  0.346E-03  0.126E-05  0.115E-03  0.115E-03  0.126E-05  0.115E-03
  9.670  0.356E-03  0.133E-05  0.118E-03  0.118E-03  0.133E-05  0.118E-03
  9.680  0.364E-03  0.140E-05  0.120E-03  0.120E-03  0.140E-05  0.120E-03
  9.690  0.370E-03  0.146E-05  0.122E-03  0.122E-03  0.146E-05  0.122E-03
  9.700  0.375E-03  0.151E-05  0.124E-03  0.124E-03  0.151E-05  0.124E-03
  9.710  0.377E-03  0.155E-05  0.125E-03  0.125E-03  0.155E-05  0.125E-03
  9.720  0.377E-03  0.158E-05  0.125E-03  0.125E-03  0.158E-05  0.125E-03
  9.730  0.374E-03  0.160E-05  0.124E-03  0.124E-03  0.160E-05  0.124E-03
  9.740  0.370E-03  0.161E-05  0.122E-03  0.122E-03  0.161E-05  0.122E-03
  9.750  0.363E-03  0.161E-05  0.120E-03  0.120E-03  0.161E-05  0.120E-03
  9.760  0.355E-03  0.160E-05  0.117E-03  0.117E-03  0.160E-05  0.117E-03
  9.770  0.346E-03  0.159E-05  0.114E-03  0.114E-03  0.159E-05  0.114E-03
  9.780  0.336E-03  0.157E-05  0.111E-03  0.111E-03  0.157E-05  0.111E-03
  9.790  0.325E-03  0.156E-05  0.107E-03  0.107E-03  0.156E-05  0.107E-03
  9.800  0.315E-03  0.155E-05  0.104E-03  0.104E-03  0.155E-05  0.104E-03
  9.810  0.305E-03  0.154E-05  0.101E-03  0.101E-03  0.154E-05  0.101E-03
  9.820  0.297E-03  0.155E-05  0.979E-04  0.979E-04  0.155E-05  0.979E-04
  9.830  0.290E-03  0.156E-05  0.957E-04  0.957E-04  0.156E-05  0.957E-04
  9.840  0.286E-03  0.159E-05  0.942E-04  0.942E-04  0.159E-05  0.942E-04
  9.850  0.284E-03  0.164E-05  0.936E-04  0.936E-04  0.164E-05  0.936E-04
  9.860  0.285E-03  0.170E-05  0.938E-04  0.938E-04  0.170E-05  0.938E-04
  9.870  0.289E-03  0.178E-05  0.950E-04  0.950E-04  0.178E-05  0.950E-04
  9.880  0.295E-03  0.189E-05  0.971E-04  0.971E-04  0.189E-05  0.971E-04
  9.890  0.304E-03  0.201E-05  0.100E-03  0.100E-03  0.201E-05  0.100E-03
  9.900  0.316E-03  0.214E-05  0.104E-03  0.104E-03  0.214E-05  0.104E-03
  9.910  0.330E-03  0.230E-05  0.109E-03  0.109E-03  0.230E-05  0.109E-03
  9.920  0.346E-03  0.246E-05  0.114E-03  0.114E-03  0.246E-05  0.114E-03
  9.930  0.363E-03  0.264E-05  0.119E-03  0.119E-03  0.264E-05  0.119E-03
  9.940  0.381E-03  0.282E-05  0.125E-03  0.125E-03  0.282E-05  0.125E-03
  9.950  0.400E-03  0.300E-05  0.131E-03  0.131E-03  0.300E-05  0.131E-03
  9.960  0.418E-03  0.319E-05  0.137E-03  0.137E-03  0.319E-05  0.137E-03
  9.970  0.436E-03  0.336E-05  0.143E-03  0.143E-03  0.336E-05  0.143E-03
  9.980  0.452E-03  0.353E-05  0.148E-03  0.148E-03  0.353E-05  0.148E-03
  9.990  0.467E-03  0.369E-05  0.153E-03  0.153E-03  0.369E-05  0.153E-03
 10.000  0.480E-03  0.383E-05  0.158E-03  0.158E-03  0.383E-05  0.158E-03
 10.010  0.491E-03  0.396E-05  0.161E-03  0.161E-03  0.396E-05  0.161E-03
 10.020  0.500E-03  0.406E-05  0.164E-03  0.164E-03  0.406E-05  0.164E-03
 10.030  0.506E-03  0.415E-05  0.166E-03  0.166E-03  0.415E-05  0.166E-03
 10.040  0.509E-03  0.422E-05  0.167E-03  0.167E-03  0.422E-05  0.167E-03
 10.050  0.510E-03  0.426E-05  0.167E-03  0.167E-03  0.426E-05  0.167E-03
 10.060  0.509E-03  0.429E-05  0.167E-03  0.167E-03  0.429E-05  0.167E-03
 10.070  0.505E-03  0.431E-05  0.165E-03  0.165E-03  0.431E-05  0.165E-03
 10.080  0.499E-03  0.431E-05  0.163E-03  0.163E-03  0.431E-05  0.163E-03
 10.090  0.491E-03  0.431E-05  0.161E-03  0.161E-03  0.431E-05  0.161E-03
 10.100  0.482E-03  0.430E-05  0.158E-03  0.158E-03  0.430E-05  0.158E-03
 10.110  0.471E-03  0.429E-05  0.154E-03  0.154E-03  0.429E-05  0.154E-03
 10.120  0.460E-03  0.428E-05  0.150E-03  0.150E-03  0.428E-05  0.150E-03
 10.130  0.449E-03  0.429E-05  0.147E-03  0.147E-03  0.429E-05  0.147E-03
 10.140  0.437E-03  0.431E-05  0.143E-03  0.143E-03  0.431E-05  0.143E-03
 10.150  0.426E-03  0.435E-05  0.139E-03  0.139E-03  0.435E-05  0.139E-03
 10.160  0.417E-03  0.441E-05  0.136E-03  0.136E-03  0.441E-05  0.136E-03
 10.170  0.408E-03  0.450E-05  0.133E-03  0.133E-03  0.450E-05  0.133E-03
 10.180  0.401E-03  0.461E-05  0.131E-03  0.131E-03  0.461E-05  0.131E-03
 10.190  0.396E-03  0.474E-05  0.129E-03  0.129E-03  0.474E-05  0.129E-03
 10.200  0.393E-03  0.491E-05  0.128E-03  0.128E-03  0.491E-05  0.128E-03
 10.210  0.393E-03  0.509E-05  0.128E-03  0.128E-03  0.509E-05  0.128E-03
 10.220  0.395E-03  0.529E-05  0.128E-03  0.128E-03  0.529E-05  0.128E-03
 10.230  0.399E-03  0.552E-05  0.129E-03  0.129E-03  0.552E-05  0.129E-03
 10.240  0.406E-03  0.575E-05  0.131E-03  0.131E-03  0.575E-05  0.131E-03
 10.250  0.414E-03  0.599E-05  0.134E-03  0.134E-03  0.599E-05  0.134E-03
 10.260  0.424E-03  0.624E-05  0.137E-03  0.137E-03  0.624E-05  0.137E-03
 10.270  0.436E-03  0.648E-05  0.141E-03  0.141E-03  0.648E-05  0.141E-03
 10.280  0.449E-03  0.673E-05  0.145E-03  0.145E-03  0.673E-05  0.145E-03
 10.290  0.463E-03  0.696E-05  0.150E-03  0.150E-03  0.696E-05  0.150E-03
 10.300  0.477E-03  0.718E-05  0.154E-03  0.154E-03  0.718E-05  0.154E-03
 10.310  0.491E-03  0.739E-05  0.159E-03  0.159E-03  0.739E-05  0.159E-03
 10.320  0.504E-03  0.758E-05  0.163E-03  0.163E-03  0.758E-05  0.163E-03
 10.330  0.517E-03  0.775E-05  0.167E-03  0.167E-03  0.775E-05  0.167E-03
 10.340  0.529E-03  0.791E-05  0.171E-03  0.171E-03  0.791E-05  0.171E-03
 10.350  0.539E-03  0.806E-05  0.174E-03  0.174E-03  0.806E-05  0.174E-03
 10.360  0.548E-03  0.819E-05  0.177E-03  0.177E-03  0.819E-05  0.177E-03
 10.370  0.554E-03  0.830E-05  0.179E-03  0.179E-03  0.830E-05  0.179E-03
 10.380  0.559E-03  0.841E-05  0.181E-03  0.181E-03  0.841E-05  0.181E-03
 10.390  0.562E-03  0.852E-05  0.182E-03  0.182E-03  0.852E-05  0.182E-03
 10.400  0.563E-03  0.862E-05  0.182E-03  0.182E-03  0.862E-05  0.182E-03
 10.410  0.562E-03  0.872E-05  0.181E-03  0.181E-03  0.872E-05  0.181E-03
 10.420  0.559E-03  0.882E-05  0.180E-03  0.180E-03  0.882E-05  0.180E-03
 10.430  0.555E-03  0.894E-05  0.179E-03  0.179E-03  0.894E-05  0.179E-03
 10.440  0.549E-03  0.906E-05  0.177E-03  0.177E-03  0.906E-05  0.177E-03
 10.450  0.543E-03  0.921E-05  0.175E-03  0.175E-03  0.921E-05  0.175E-03
 10.460  0.536E-03  0.936E-05  0.172E-03  0.172E-03  0.936E-05  0.172E-03
 10.470  0.528E-03  0.954E-05  0.170E-03  0.170E-03  0.954E-05  0.170E-03
 10.480  0.520E-03  0.973E-05  0.167E-03  0.167E-03  0.973E-05  0.167E-03
 10.490  0.512E-03  0.994E-05  0.164E-03  0.164E-03  0.994E-05  0.164E-03
 10.500  0.505E-03  0.102E-04  0.162E-03  0.162E-03  0.102E-04  0.162E-03
 10.510  0.498E-03  0.104E-04  0.159E-03  0.159E-03  0.104E-04  0.159E-03
 10.520  0.491E-03  0.106E-04  0.157E-03  0.157E-03  0.106E-04  0.157E-03
 10.530  0.485E-03  0.109E-04  0.154E-03  0.154E-03  0.109E-04  0.154E-03
 10.540  0.480E-03  0.111E-04  0.153E-03  0.153E-03  0.111E-04  0.153E-03
 10.550  0.475E-03  0.114E-04  0.151E-03  0.151E-03  0.114E-04  0.151E-03
 10.560  0.472E-03  0.116E-04  0.149E-03  0.149E-03  0.116E-04  0.149E-03
 10.570  0.469E-03  0.118E-04  0.148E-03  0.148E-03  0.118E-04  0.148E-03
 10.580  0.466E-03  0.120E-04  0.148E-03  0.148E-03  0.120E-04  0.148E-03
 10.590  0.465E-03  0.121E-04  0.147E-03  0.147E-03  0.121E-04  0.147E-03
 10.600  0.465E-03  0.123E-04  0.147E-03  0.147E-03  0.123E-04  0.147E-03
 10.610  0.465E-03  0.124E-04  0.147E-03  0.147E-03  0.124E-04  0.147E-03
 10.620  0.466E-03  0.125E-04  0.147E-03  0.147E-03  0.125E-04  0.147E-03
 10.630  0.469E-03  0.126E-04  0.148E-03  0.148E-03  0.126E-04  0.148E-03
 10.640  0.472E-03  0.127E-04  0.149E-03  0.149E-03  0.127E-04  0.149E-03
 10.650  0.476E-03  0.128E-04  0.150E-03  0.150E-03  0.128E-04  0.150E-03
 10.660  0.481E-03  0.129E-04  0.152E-03  0.152E-03  0.129E-04  0.152E-03
 10.670  0.486E-03  0.131E-04  0.153E-03  0.153E-03  0.131E-04  0.153E-03
 10.680  0.493E-03  0.132E-04  0.155E-03  0.155E-03  0.132E-04  0.155E-03
 10.690  0.500E-03  0.134E-04  0.158E-03  0.158E-03  0.134E-04  0.158E-03
 10.700  0.508E-03  0.137E-04  0.160E-03  0.160E-03  0.137E-04  0.160E-03
 10.710  0.516E-03  0.139E-04  0.163E-03  0.163E-03  0.139E-04  0.163E-03
 10.720  0.524E-03  0.143E-04  0.165E-03  0.165E-03  0.143E-04  0.165E-03
 10.730  0.532E-03  0.146E-04  0.168E-03  0.168E-03  0.146E-04  0.168E-03
 10.740  0.540E-03  0.150E-04  0.170E-03  0.170E-03  0.150E-04  0.170E-03
 10.750  0.546E-03  0.154E-04  0.172E-03  0.172E-03  0.154E-04  0.172E-03
 10.760  0.552E-03  0.159E-04  0.174E-03  0.174E-03  0.159E-04  0.174E-03
 10.770  0.557E-03  0.164E-04  0.175E-03  0.175E-03  0.164E-04  0.175E-03
 10.780  0.561E-03  0.168E-04  0.176E-03  0.176E-03  0.168E-04  0.176E-03
 10.790  0.563E-03  0.173E-04  0.176E-03  0.176E-03  0.173E-04  0.176E-03
 10.800  0.563E-03  0.178E-04  0.176E-03  0.176E-03  0.178E-04  0.176E-03
 10.810  0.562E-03  0.182E-04  0.175E-03  0.175E-03  0.182E-04  0.175E-03
 10.820  0.559E-03  0.187E-04  0.174E-03  0.174E-03  0.187E-04  0.174E-03
 10.830  0.555E-03  0.190E-04  0.172E-03  0.172E-03  0.190E-04  0.172E-03
 10.840  0.549E-03  0.194E-04  0.170E-03  0.170E-03  0.194E-04  0.170E-03
 10.850  0.542E-03  0.196E-04  0.168E-03  0.168E-03  0.196E-04  0.168E-03
 10.860  0.534E-03  0.199E-04  0.165E-03  0.165E-03  0.199E-04  0.165E-03
 10.870  0.524E-03  0.201E-04  0.161E-03  0.161E-03  0.201E-04  0.161E-03
 10.880  0.514E-03  0.202E-04  0.158E-03  0.158E-03  0.202E-04  0.158E-03
 10.890  0.503E-03  0.203E-04  0.154E-03  0.154E-03  0.203E-04  0.154E-03
 10.900  0.492E-03  0.203E-04  0.151E-03  0.151E-03  0.203E-04  0.151E-03
 10.910  0.481E-03  0.203E-04  0.147E-03  0.147E-03  0.203E-04  0.147E-03
 10.920  0.471E-03  0.203E-04  0.143E-03  0.143E-03  0.203E-04  0.143E-03
 10.930  0.461E-03  0.203E-04  0.140E-03  0.140E-03  0.203E-04  0.140E-03
 10.940  0.451E-03  0.203E-04  0.137E-03  0.137E-03  0.203E-04  0.137E-03
 10.950  0.443E-03  0.202E-04  0.134E-03  0.134E-03  0.202E-04  0.134E-03
 10.960  0.435E-03  0.202E-04  0.132E-03  0.132E-03  0.202E-04  0.132E-03
 10.970  0.429E-03  0.202E-04  0.130E-03  0.130E-03  0.202E-04  0.130E-03
 10.980  0.425E-03  0.203E-04  0.128E-03  0.128E-03  0.203E-04  0.128E-03
 10.990  0.423E-03  0.204E-04  0.127E-03  0.127E-03  0.204E-04  0.127E-03
 11.000  0.422E-03  0.206E-04  0.127E-03  0.127E-03  0.206E-04  0.127E-03
 11.010  0.424E-03  0.209E-04  0.127E-03  0.127E-03  0.209E-04  0.127E-03
 11.020  0.427E-03  0.212E-04  0.128E-03  0.128E-03  0.212E-04  0.128E-03
 11.030  0.432E-03  0.217E-04  0.129E-03  0.129E-03  0.217E-04  0.129E-03
 11.040  0.438E-03  0.221E-04  0.131E-03  0.131E-03  0.221E-04  0.131E-03
 11.050  0.446E-03  0.227E-04  0.134E-03  0.134E-03  0.227E-04  0.134E-03
 11.060  0.455E-03  0.233E-04  0.136E-03  0.136E-03  0.233E-04  0.136E-03
 11.070  0.465E-03  0.240E-04  0.139E-03  0.139E-03  0.240E-04  0.139E-03
 11.080  0.475E-03  0.247E-04  0.142E-03  0.142E-03  0.247E-04  0.142E-03
 11.090  0.485E-03  0.254E-04  0.145E-03  0.145E-03  0.254E-04  0.145E-03
 11.100  0.494E-03  0.261E-04  0.147E-03  0.147E-03  0.261E-04  0.147E-03
 11.110  0.502E-03  0.267E-04  0.150E-03  0.150E-03  0.267E-04  0.150E-03
 11.120  0.510E-03  0.274E-04  0.152E-03  0.152E-03  0.274E-04  0.152E-03
 11.130  0.515E-03  0.280E-04  0.153E-03  0.153E-03  0.280E-04  0.153E-03
 11.140  0.519E-03  0.285E-04  0.154E-03  0.154E-03  0.285E-04  0.154E-03
 11.150  0.521E-03  0.290E-04  0.154E-03  0.154E-03  0.290E-04  0.154E-03
 11.160  0.521E-03  0.294E-04  0.154E-03  0.154E-03  0.294E-04  0.154E-03
 11.170  0.519E-03  0.298E-04  0.153E-03  0.153E-03  0.298E-04  0.153E-03
 11.180  0.515E-03  0.301E-04  0.151E-03  0.151E-03  0.301E-04  0.151E-03
 11.190  0.509E-03  0.303E-04  0.149E-03  0.149E-03  0.303E-04  0.149E-03
 11.200  0.501E-03  0.305E-04  0.147E-03  0.147E-03  0.305E-04  0.147E-03
 11.210  0.493E-03  0.307E-04  0.144E-03  0.144E-03  0.307E-04  0.144E-03
 11.220  0.483E-03  0.308E-04  0.140E-03  0.140E-03  0.308E-04  0.140E-03
 11.230  0.472E-03  0.310E-04  0.137E-03  0.137E-03  0.310E-04  0.137E-03
 11.240  0.462E-03  0.311E-04  0.133E-03  0.133E-03  0.311E-04  0.133E-03
 11.250  0.451E-03  0.313E-04  0.129E-03  0.129E-03  0.313E-04  0.129E-03
 11.260  0.440E-03  0.315E-04  0.126E-03  0.126E-03  0.315E-04  0.126E-03
 11.270  0.430E-03  0.317E-04  0.122E-03  0.122E-03  0.317E-04  0.122E-03
 11.280  0.420E-03  0.319E-04  0.119E-03  0.119E-03  0.319E-04  0.119E-03
 11.290  0.411E-03  0.321E-04  0.116E-03  0.116E-03  0.321E-04  0.116E-03
 11.300  0.403E-03  0.324E-04  0.113E-03  0.113E-03  0.324E-04  0.113E-03
 11.310  0.396E-03  0.327E-04  0.110E-03  0.110E-03  0.327E-04  0.110E-03
 11.320  0.390E-03  0.330E-04  0.108E-03  0.108E-03  0.330E-04  0.108E-03
 11.330  0.385E-03  0.333E-04  0.106E-03  0.106E-03  0.333E-04  0.106E-03
 11.340  0.381E-03  0.336E-04  0.105E-03  0.105E-03  0.336E-04  0.105E-03
 11.350  0.379E-03  0.340E-04  0.104E-03  0.104E-03  0.340E-04  0.104E-03
 11.360  0.377E-03  0.344E-04  0.103E-03  0.103E-03  0.344E-04  0.103E-03
 11.370  0.377E-03  0.347E-04  0.103E-03  0.103E-03  0.347E-04  0.103E-03
 11.380  0.378E-03  0.351E-04  0.103E-03  0.103E-03  0.351E-04  0.103E-03
 11.390  0.380E-03  0.356E-04  0.103E-03  0.103E-03  0.356E-04  0.103E-03
 11.400  0.383E-03  0.360E-04  0.104E-03  0.104E-03  0.360E-04  0.104E-03
 11.410  0.386E-03  0.364E-04  0.104E-03  0.104E-03  0.364E-04  0.104E-03
 11.420  0.391E-03  0.369E-04  0.106E-03  0.106E-03  0.369E-04  0.106E-03
 11.430  0.395E-03  0.374E-04  0.107E-03  0.107E-03  0.374E-04  0.107E-03
 11.440  0.400E-03  0.379E-04  0.108E-03  0.108E-03  0.379E-04  0.108E-03
 11.450  0.406E-03  0.384E-04  0.110E-03  0.110E-03  0.384E-04  0.110E-03
 11.460  0.411E-03  0.390E-04  0.111E-03  0.111E-03  0.390E-04  0.111E-03
 11.470  0.416E-03  0.395E-04  0.112E-03  0.112E-03  0.395E-04  0.112E-03
 11.480  0.420E-03  0.401E-04  0.113E-03  0.113E-03  0.401E-04  0.113E-03
 11.490  0.424E-03  0.407E-04  0.114E-03  0.114E-03  0.407E-04  0.114E-03
 11.500  0.427E-03  0.413E-04  0.115E-03  0.115E-03  0.413E-04  0.115E-03
 11.510  0.429E-03  0.419E-04  0.115E-03  0.115E-03  0.419E-04  0.115E-03
 11.520  0.431E-03  0.425E-04  0.115E-03  0.115E-03  0.425E-04  0.115E-03
 11.530  0.432E-03  0.432E-04  0.115E-03  0.115E-03  0.432E-04  0.115E-03
 11.540  0.431E-03  0.438E-04  0.115E-03  0.115E-03  0.438E-04  0.115E-03
 11.550  0.430E-03  0.445E-04  0.114E-03  0.114E-03  0.445E-04  0.114E-03
 11.560  0.428E-03  0.451E-04  0.113E-03  0.113E-03  0.451E-04  0.113E-03
 11.570  0.426E-03  0.458E-04  0.111E-03  0.111E-03  0.458E-04  0.111E-03
 11.580  0.423E-03  0.464E-04  0.110E-03  0.110E-03  0.464E-04  0.110E-03
 11.590  0.419E-03  0.470E-04  0.108E-03  0.108E-03  0.470E-04  0.108E-03
 11.600  0.414E-03  0.476E-04  0.106E-03  0.106E-03  0.476E-04  0.106E-03
 11.610  0.410E-03  0.481E-04  0.104E-03  0.104E-03  0.481E-04  0.104E-03
 11.620  0.405E-03  0.486E-04  0.103E-03  0.103E-03  0.486E-04  0.103E-03
 11.630  0.400E-03  0.491E-04  0.101E-03  0.101E-03  0.491E-04  0.101E-03
 11.640  0.395E-03  0.495E-04  0.986E-04  0.986E-04  0.495E-04  0.986E-04
 11.650  0.390E-03  0.499E-04  0.967E-04  0.967E-04  0.499E-04  0.967E-04
 11.660  0.386E-03  0.503E-04  0.950E-04  0.950E-04  0.503E-04  0.950E-04
 11.670  0.381E-03  0.506E-04  0.934E-04  0.934E-04  0.506E-04  0.934E-04
 11.680  0.378E-03  0.510E-04  0.920E-04  0.920E-04  0.510E-04  0.920E-04
 11.690  0.375E-03  0.514E-04  0.909E-04  0.909E-04  0.514E-04  0.909E-04
 11.700  0.374E-03  0.517E-04  0.901E-04  0.901E-04  0.517E-04  0.901E-04
 11.710  0.373E-03  0.521E-04  0.896E-04  0.896E-04  0.521E-04  0.896E-04
 11.720  0.374E-03  0.525E-04  0.896E-04  0.896E-04  0.525E-04  0.896E-04
 11.730  0.376E-03  0.530E-04  0.900E-04  0.900E-04  0.530E-04  0.900E-04
 11.740  0.380E-03  0.535E-04  0.909E-04  0.909E-04  0.535E-04  0.909E-04
 11.750  0.385E-03  0.540E-04  0.923E-04  0.923E-04  0.540E-04  0.923E-04
 11.760  0.392E-03  0.545E-04  0.943E-04  0.943E-04  0.545E-04  0.943E-04
 11.770  0.401E-03  0.551E-04  0.970E-04  0.970E-04  0.551E-04  0.970E-04
 11.780  0.412E-03  0.558E-04  0.100E-03  0.100E-03  0.558E-04  0.100E-03
 11.790  0.426E-03  0.565E-04  0.104E-03  0.104E-03  0.565E-04  0.104E-03
 11.800  0.442E-03  0.572E-04  0.109E-03  0.109E-03  0.572E-04  0.109E-03
 11.810  0.460E-03  0.580E-04  0.115E-03  0.115E-03  0.580E-04  0.115E-03
 11.820  0.480E-03  0.588E-04  0.121E-03  0.121E-03  0.588E-04  0.121E-03
 11.830  0.503E-03  0.597E-04  0.128E-03  0.128E-03  0.597E-04  0.128E-03
 11.840  0.529E-03  0.605E-04  0.136E-03  0.136E-03  0.605E-04  0.136E-03
 11.850  0.557E-03  0.615E-04  0.145E-03  0.145E-03  0.615E-04  0.145E-03
 11.860  0.587E-03  0.625E-04  0.154E-03  0.154E-03  0.625E-04  0.154E-03
 11.870  0.620E-03  0.635E-04  0.164E-03  0.164E-03  0.635E-04  0.164E-03
 11.880  0.655E-03  0.645E-04  0.175E-03  0.175E-03  0.645E-04  0.175E-03
 11.890  0.691E-03  0.656E-04  0.187E-03  0.187E-03  0.656E-04  0.187E-03
 11.900  0.730E-03  0.667E-04  0.199E-03  0.199E-03  0.667E-04  0.199E-03
 11.910  0.769E-03  0.679E-04  0.211E-03  0.211E-03  0.679E-04  0.211E-03
 11.920  0.810E-03  0.691E-04  0.224E-03  0.224E-03  0.691E-04  0.224E-03
 11.930  0.852E-03  0.703E-04  0.237E-03  0.237E-03  0.703E-04  0.237E-03
 11.940  0.894E-03  0.715E-04  0.250E-03  0.250E-03  0.715E-04  0.250E-03
 11.950  0.936E-03  0.727E-04  0.263E-03  0.263E-03  0.727E-04  0.263E-03
 11.960  0.978E-03  0.740E-04  0.277E-03  0.277E-03  0.740E-04  0.277E-03
 11.970  0.102E-02  0.753E-04  0.289E-03  0.289E-03  0.753E-04  0.289E-03
 11.980  0.106E-02  0.766E-04  0.302E-03  0.302E-03  0.766E-04  0.302E-03
 11.990  0.110E-02  0.779E-04  0.314E-03  0.314E-03  0.779E-04  0.314E-03
 12.000  0.114E-02  0.793E-04  0.326E-03  0.326E-03  0.793E-04  0.326E-03
 12.010  0.117E-02  0.807E-04  0.338E-03  0.338E-03  0.807E-04  0.338E-03
 12.020  0.121E-02  0.821E-04  0.349E-03  0.349E-03  0.821E-04  0.349E-03
 12.030  0.125E-02  0.836E-04  0.360E-03  0.360E-03  0.836E-04  0.360E-03
 12.040  0.128E-02  0.852E-04  0.370E-03  0.370E-03  0.852E-04  0.370E-03
 12.050  0.131E-02  0.868E-04  0.380E-03  0.380E-03  0.868E-04  0.380E-03
 12.060  0.135E-02  0.884E-04  0.389E-03  0.389E-03  0.884E-04  0.389E-03
 12.070  0.138E-02  0.901E-04  0.399E-03  0.399E-03  0.901E-04  0.399E-03
 12.080  0.141E-02  0.919E-04  0.408E-03  0.408E-03  0.919E-04  0.408E-03
 12.090  0.144E-02  0.936E-04  0.418E-03  0.418E-03  0.936E-04  0.418E-03
 12.100  0.147E-02  0.953E-04  0.427E-03  0.427E-03  0.953E-04  0.427E-03
 12.110  0.150E-02  0.970E-04  0.437E-03  0.437E-03  0.970E-04  0.437E-03
 12.120  0.154E-02  0.986E-04  0.446E-03  0.446E-03  0.986E-04  0.446E-03
 12.130  0.157E-02  0.100E-03  0.456E-03  0.456E-03  0.100E-03  0.456E-03
 12.140  0.160E-02  0.101E-03  0.465E-03  0.465E-03  0.101E-03  0.465E-03
 12.150  0.163E-02  0.103E-03  0.475E-03  0.475E-03  0.103E-03  0.475E-03
 12.160  0.166E-02  0.104E-03  0.484E-03  0.484E-03  0.104E-03  0.484E-03
 12.170  0.169E-02  0.104E-03  0.494E-03  0.494E-03  0.104E-03  0.494E-03
 12.180  0.172E-02  0.105E-03  0.503E-03  0.503E-03  0.105E-03  0.503E-03
 12.190  0.175E-02  0.105E-03  0.512E-03  0.512E-03  0.105E-03  0.512E-03
 12.200  0.177E-02  0.105E-03  0.520E-03  0.520E-03  0.105E-03  0.520E-03
 12.210  0.179E-02  0.105E-03  0.527E-03  0.527E-03  0.105E-03  0.527E-03
 12.220  0.181E-02  0.105E-03  0.534E-03  0.534E-03  0.105E-03  0.534E-03
 12.230  0.183E-02  0.104E-03  0.540E-03  0.540E-03  0.104E-03  0.540E-03
 12.240  0.184E-02  0.103E-03  0.545E-03  0.545E-03  0.103E-03  0.545E-03
 12.250  0.185E-02  0.102E-03  0.549E-03  0.549E-03  0.102E-03  0.549E-03
 12.260  0.186E-02  0.101E-03  0.552E-03  0.552E-03  0.101E-03  0.552E-03
 12.270  0.186E-02  0.100E-03  0.554E-03  0.554E-03  0.100E-03  0.554E-03
 12.280  0.186E-02  0.993E-04  0.555E-03  0.555E-03  0.993E-04  0.555E-03
 12.290  0.186E-02  0.983E-04  0.556E-03  0.556E-03  0.983E-04  0.556E-03
 12.300  0.186E-02  0.975E-04  0.556E-03  0.556E-03  0.975E-04  0.556E-03
 12.310  0.186E-02  0.968E-04  0.556E-03  0.556E-03  0.968E-04  0.556E-03
 12.320  0.186E-02  0.963E-04  0.556E-03  0.556E-03  0.963E-04  0.556E-03
 12.330  0.186E-02  0.960E-04  0.557E-03  0.557E-03  0.960E-04  0.557E-03
 12.340  0.186E-02  0.960E-04  0.557E-03  0.557E-03  0.960E-04  0.557E-03
 12.350  0.187E-02  0.962E-04  0.559E-03  0.559E-03  0.962E-04  0.559E-03
 12.360  0.188E-02  0.966E-04  0.561E-03  0.561E-03  0.966E-04  0.561E-03
 12.370  0.189E-02  0.973E-04  0.564E-03  0.564E-03  0.973E-04  0.564E-03
 12.380  0.190E-02  0.982E-04  0.568E-03  0.568E-03  0.982E-04  0.568E-03
 12.390  0.192E-02  0.993E-04  0.573E-03  0.573E-03  0.993E-04  0.573E-03
 12.400  0.194E-02  0.100E-03  0.579E-03  0.579E-03  0.100E-03  0.579E-03
 12.410  0.196E-02  0.102E-03  0.587E-03  0.587E-03  0.102E-03  0.587E-03
 12.420  0.199E-02  0.103E-03  0.595E-03  0.595E-03  0.103E-03  0.595E-03
 12.430  0.202E-02  0.105E-03  0.603E-03  0.603E-03  0.105E-03  0.603E-03
 12.440  0.205E-02  0.106E-03  0.612E-03  0.612E-03  0.106E-03  0.612E-03
 12.450  0.208E-02  0.107E-03  0.621E-03  0.621E-03  0.107E-03  0.621E-03
 12.460  0.211E-02  0.108E-03  0.630E-03  0.630E-03  0.108E-03  0.630E-03
 12.470  0.213E-02  0.109E-03  0.639E-03  0.639E-03  0.109E-03  0.639E-03
 12.480  0.216E-02  0.110E-03  0.646E-03  0.646E-03  0.110E-03  0.646E-03
 12.490  0.218E-02  0.110E-03  0.652E-03  0.652E-03  0.110E-03  0.652E-03
 12.500  0.219E-02  0.110E-03  0.657E-03  0.657E-03  0.110E-03  0.657E-03
 12.510  0.220E-02  0.109E-03  0.661E-03  0.661E-03  0.109E-03  0.661E-03
 12.520  0.220E-02  0.109E-03  0.662E-03  0.662E-03  0.109E-03  0.662E-03
 12.530  0.220E-02  0.108E-03  0.663E-03  0.663E-03  0.108E-03  0.663E-03
 12.540  0.220E-02  0.106E-03  0.661E-03  0.661E-03  0.106E-03  0.661E-03
 12.550  0.218E-02  0.105E-03  0.658E-03  0.658E-03  0.105E-03  0.658E-03
 12.560  0.217E-02  0.103E-03  0.654E-03  0.654E-03  0.103E-03  0.654E-03
 12.570  0.215E-02  0.101E-03  0.649E-03  0.649E-03  0.101E-03  0.649E-03
 12.580  0.213E-02  0.987E-04  0.643E-03  0.643E-03  0.987E-04  0.643E-03
 12.590  0.211E-02  0.966E-04  0.638E-03  0.638E-03  0.966E-04  0.638E-03
 12.600  0.209E-02  0.945E-04  0.632E-03  0.632E-03  0.945E-04  0.632E-03
 12.610  0.207E-02  0.926E-04  0.627E-03  0.627E-03  0.926E-04  0.627E-03
 12.620  0.205E-02  0.909E-04  0.624E-03  0.624E-03  0.909E-04  0.624E-03
 12.630  0.204E-02  0.894E-04  0.622E-03  0.622E-03  0.894E-04  0.622E-03
 12.640  0.204E-02  0.882E-04  0.621E-03  0.621E-03  0.882E-04  0.621E-03
 12.650  0.204E-02  0.875E-04  0.623E-03  0.623E-03  0.875E-04  0.623E-03
 12.660  0.205E-02  0.871E-04  0.627E-03  0.627E-03  0.871E-04  0.627E-03
 12.670  0.207E-02  0.872E-04  0.633E-03  0.633E-03  0.872E-04  0.633E-03
 12.680  0.210E-02  0.877E-04  0.641E-03  0.641E-03  0.877E-04  0.641E-03
 12.690  0.213E-02  0.887E-04  0.651E-03  0.651E-03  0.887E-04  0.651E-03
 12.700  0.217E-02  0.900E-04  0.663E-03  0.663E-03  0.900E-04  0.663E-03
 12.710  0.221E-02  0.918E-04  0.676E-03  0.676E-03  0.918E-04  0.676E-03
 12.720  0.226E-02  0.938E-04  0.690E-03  0.690E-03  0.938E-04  0.690E-03
 12.730  0.230E-02  0.961E-04  0.704E-03  0.704E-03  0.961E-04  0.704E-03
 12.740  0.235E-02  0.986E-04  0.718E-03  0.718E-03  0.986E-04  0.718E-03
 12.750  0.240E-02  0.101E-03  0.731E-03  0.731E-03  0.101E-03  0.731E-03
 12.760  0.244E-02  0.104E-03  0.743E-03  0.743E-03  0.104E-03  0.743E-03
 12.770  0.247E-02  0.106E-03  0.753E-03  0.753E-03  0.106E-03  0.753E-03
 12.780  0.250E-02  0.108E-03  0.761E-03  0.761E-03  0.108E-03  0.761E-03
 12.790  0.252E-02  0.110E-03  0.766E-03  0.766E-03  0.110E-03  0.766E-03
 12.800  0.253E-02  0.111E-03  0.768E-03  0.768E-03  0.111E-03  0.768E-03
 12.810  0.253E-02  0.112E-03  0.768E-03  0.768E-03  0.112E-03  0.768E-03
 12.820  0.252E-02  0.113E-03  0.765E-03  0.765E-03  0.113E-03  0.765E-03
 12.830  0.250E-02  0.113E-03  0.759E-03  0.759E-03  0.113E-03  0.759E-03
 12.840  0.248E-02  0.112E-03  0.751E-03  0.751E-03  0.112E-03  0.751E-03
 12.850  0.244E-02  0.111E-03  0.741E-03  0.741E-03  0.111E-03  0.741E-03
 12.860  0.241E-02  0.110E-03  0.729E-03  0.729E-03  0.110E-03  0.729E-03
 12.870  0.237E-02  0.108E-03  0.717E-03  0.717E-03  0.108E-03  0.717E-03
 12.880  0.232E-02  0.106E-03  0.704E-03  0.704E-03  0.106E-03  0.704E-03
 12.890  0.228E-02  0.103E-03  0.692E-03  0.692E-03  0.103E-03  0.692E-03
 12.900  0.225E-02  0.101E-03  0.681E-03  0.681E-03  0.101E-03  0.681E-03
 12.910  0.221E-02  0.982E-04  0.672E-03  0.672E-03  0.982E-04  0.672E-03
 12.920  0.219E-02  0.959E-04  0.665E-03  0.665E-03  0.959E-04  0.665E-03
 12.930  0.217E-02  0.938E-04  0.661E-03  0.661E-03  0.938E-04  0.661E-03
 12.940  0.216E-02  0.920E-04  0.660E-03  0.660E-03  0.920E-04  0.660E-03
 12.950  0.217E-02  0.906E-04  0.662E-03  0.662E-03  0.906E-04  0.662E-03
 12.960  0.218E-02  0.897E-04  0.667E-03  0.667E-03  0.897E-04  0.667E-03
 12.970  0.220E-02  0.893E-04  0.675E-03  0.675E-03  0.893E-04  0.675E-03
 12.980  0.224E-02  0.893E-04  0.686E-03  0.686E-03  0.893E-04  0.686E-03
 12.990  0.228E-02  0.899E-04  0.700E-03  0.700E-03  0.899E-04  0.700E-03
 13.000  0.233E-02  0.909E-04  0.715E-03  0.715E-03  0.909E-04  0.715E-03
 13.010  0.238E-02  0.924E-04  0.731E-03  0.731E-03  0.924E-04  0.731E-03
 13.020  0.243E-02  0.942E-04  0.748E-03  0.748E-03  0.942E-04  0.748E-03
 13.030  0.248E-02  0.962E-04  0.764E-03  0.764E-03  0.962E-04  0.764E-03
 13.040  0.254E-02  0.985E-04  0.779E-03  0.779E-03  0.985E-04  0.779E-03
 13.050  0.258E-02  0.101E-03  0.793E-03  0.793E-03  0.101E-03  0.793E-03
 13.060  0.262E-02  0.103E-03  0.805E-03  0.805E-03  0.103E-03  0.805E-03
 13.070  0.265E-02  0.105E-03  0.814E-03  0.814E-03  0.105E-03  0.814E-03
 13.080  0.268E-02  0.107E-03  0.820E-03  0.820E-03  0.107E-03  0.820E-03
 13.090  0.269E-02  0.109E-03  0.823E-03  0.823E-03  0.109E-03  0.823E-03
 13.100  0.269E-02  0.110E-03  0.823E-03  0.823E-03  0.110E-03  0.823E-03
 13.110  0.268E-02  0.111E-03  0.820E-03  0.820E-03  0.111E-03  0.820E-03
 13.120  0.266E-02  0.111E-03  0.814E-03  0.814E-03  0.111E-03  0.814E-03
 13.130  0.264E-02  0.111E-03  0.805E-03  0.805E-03  0.111E-03  0.805E-03
 13.140  0.260E-02  0.111E-03  0.794E-03  0.794E-03  0.111E-03  0.794E-03
 13.150  0.257E-02  0.110E-03  0.781E-03  0.781E-03  0.110E-03  0.781E-03
 13.160  0.252E-02  0.109E-03  0.768E-03  0.768E-03  0.109E-03  0.768E-03
 13.170  0.248E-02  0.108E-03  0.754E-03  0.754E-03  0.108E-03  0.754E-03
 13.180  0.243E-02  0.107E-03  0.740E-03  0.740E-03  0.107E-03  0.740E-03
 13.190  0.239E-02  0.105E-03  0.728E-03  0.728E-03  0.105E-03  0.728E-03
 13.200  0.235E-02  0.103E-03  0.716E-03  0.716E-03  0.103E-03  0.716E-03
 13.210  0.232E-02  0.101E-03  0.707E-03  0.707E-03  0.101E-03  0.707E-03
 13.220  0.230E-02  0.996E-04  0.700E-03  0.700E-03  0.996E-04  0.700E-03
 13.230  0.228E-02  0.981E-04  0.695E-03  0.695E-03  0.981E-04  0.695E-03
 13.240  0.228E-02  0.967E-04  0.694E-03  0.694E-03  0.967E-04  0.694E-03
 13.250  0.228E-02  0.956E-04  0.695E-03  0.695E-03  0.956E-04  0.695E-03
 13.260  0.229E-02  0.948E-04  0.700E-03  0.700E-03  0.948E-04  0.700E-03
 13.270  0.231E-02  0.943E-04  0.707E-03  0.707E-03  0.943E-04  0.707E-03
 13.280  0.234E-02  0.941E-04  0.716E-03  0.716E-03  0.941E-04  0.716E-03
 13.290  0.237E-02  0.942E-04  0.727E-03  0.727E-03  0.942E-04  0.727E-03
 13.300  0.241E-02  0.946E-04  0.739E-03  0.739E-03  0.946E-04  0.739E-03
 13.310  0.245E-02  0.953E-04  0.752E-03  0.752E-03  0.953E-04  0.752E-03
 13.320  0.249E-02  0.962E-04  0.765E-03  0.765E-03  0.962E-04  0.765E-03
 13.330  0.253E-02  0.973E-04  0.777E-03  0.777E-03  0.973E-04  0.777E-03
 13.340  0.256E-02  0.985E-04  0.788E-03  0.788E-03  0.985E-04  0.788E-03
 13.350  0.259E-02  0.998E-04  0.797E-03  0.797E-03  0.998E-04  0.797E-03
 13.360  0.261E-02  0.101E-03  0.804E-03  0.804E-03  0.101E-03  0.804E-03
 13.370  0.263E-02  0.102E-03  0.809E-03  0.809E-03  0.102E-03  0.809E-03
 13.380  0.264E-02  0.104E-03  0.810E-03  0.810E-03  0.104E-03  0.810E-03
 13.390  0.264E-02  0.105E-03  0.809E-03  0.809E-03  0.105E-03  0.809E-03
 13.400  0.263E-02  0.106E-03  0.805E-03  0.805E-03  0.106E-03  0.805E-03
 13.410  0.261E-02  0.106E-03  0.798E-03  0.798E-03  0.106E-03  0.798E-03
 13.420  0.258E-02  0.107E-03  0.789E-03  0.789E-03  0.107E-03  0.789E-03
 13.430  0.255E-02  0.107E-03  0.778E-03  0.778E-03  0.107E-03  0.778E-03
 13.440  0.251E-02  0.107E-03  0.766E-03  0.766E-03  0.107E-03  0.766E-03
 13.450  0.247E-02  0.107E-03  0.753E-03  0.753E-03  0.107E-03  0.753E-03
 13.460  0.243E-02  0.106E-03  0.740E-03  0.740E-03  0.106E-03  0.740E-03
 13.470  0.239E-02  0.106E-03  0.727E-03  0.727E-03  0.106E-03  0.727E-03
 13.480  0.235E-02  0.105E-03  0.715E-03  0.715E-03  0.105E-03  0.715E-03
 13.490  0.232E-02  0.104E-03  0.704E-03  0.704E-03  0.104E-03  0.704E-03
 13.500  0.229E-02  0.103E-03  0.695E-03  0.695E-03  0.103E-03  0.695E-03
 13.510  0.227E-02  0.102E-03  0.689E-03  0.689E-03  0.102E-03  0.689E-03
 13.520  0.226E-02  0.101E-03  0.685E-03  0.685E-03  0.101E-03  0.685E-03
 13.530  0.225E-02  0.996E-04  0.684E-03  0.684E-03  0.996E-04  0.684E-03
 13.540  0.225E-02  0.986E-04  0.686E-03  0.686E-03  0.986E-04  0.686E-03
 13.550  0.227E-02  0.976E-04  0.690E-03  0.690E-03  0.976E-04  0.690E-03
 13.560  0.228E-02  0.967E-04  0.697E-03  0.697E-03  0.967E-04  0.697E-03
 13.570  0.231E-02  0.959E-04  0.706E-03  0.706E-03  0.959E-04  0.706E-03
 13.580  0.234E-02  0.952E-04  0.716E-03  0.716E-03  0.952E-04  0.716E-03
 13.590  0.237E-02  0.947E-04  0.728E-03  0.728E-03  0.947E-04  0.728E-03
 13.600  0.241E-02  0.943E-04  0.740E-03  0.740E-03  0.943E-04  0.740E-03
 13.610  0.245E-02  0.940E-04  0.753E-03  0.753E-03  0.940E-04  0.753E-03
 13.620  0.248E-02  0.938E-04  0.764E-03  0.764E-03  0.938E-04  0.764E-03
 13.630  0.251E-02  0.937E-04  0.774E-03  0.774E-03  0.937E-04  0.774E-03
 13.640  0.253E-02  0.936E-04  0.782E-03  0.782E-03  0.936E-04  0.782E-03
 13.650  0.255E-02  0.936E-04  0.787E-03  0.787E-03  0.936E-04  0.787E-03
 13.660  0.256E-02  0.935E-04  0.790E-03  0.790E-03  0.935E-04  0.790E-03
 13.670  0.255E-02  0.934E-04  0.789E-03  0.789E-03  0.934E-04  0.789E-03
 13.680  0.254E-02  0.933E-04  0.785E-03  0.785E-03  0.933E-04  0.785E-03
 13.690  0.252E-02  0.931E-04  0.779E-03  0.779E-03  0.931E-04  0.779E-03
 13.700  0.249E-02  0.929E-04  0.769E-03  0.769E-03  0.929E-04  0.769E-03
 13.710  0.245E-02  0.926E-04  0.756E-03  0.756E-03  0.926E-04  0.756E-03
 13.720  0.241E-02  0.924E-04  0.742E-03  0.742E-03  0.924E-04  0.742E-03
 13.730  0.236E-02  0.921E-04  0.726E-03  0.726E-03  0.921E-04  0.726E-03
 13.740  0.231E-02  0.918E-04  0.710E-03  0.710E-03  0.918E-04  0.710E-03
 13.750  0.226E-02  0.915E-04  0.694E-03  0.694E-03  0.915E-04  0.694E-03
 13.760  0.222E-02  0.913E-04  0.678E-03  0.678E-03  0.913E-04  0.678E-03
 13.770  0.217E-02  0.911E-04  0.664E-03  0.664E-03  0.911E-04  0.664E-03
 13.780  0.214E-02  0.909E-04  0.652E-03  0.652E-03  0.909E-04  0.652E-03
 13.790  0.211E-02  0.908E-04  0.642E-03  0.642E-03  0.908E-04  0.642E-03
 13.800  0.209E-02  0.907E-04  0.635E-03  0.635E-03  0.907E-04  0.635E-03
 13.810  0.208E-02  0.907E-04  0.632E-03  0.632E-03  0.907E-04  0.632E-03
 13.820  0.208E-02  0.906E-04  0.632E-03  0.632E-03  0.906E-04  0.632E-03
 13.830  0.208E-02  0.905E-04  0.634E-03  0.634E-03  0.905E-04  0.634E-03
 13.840  0.210E-02  0.904E-04  0.640E-03  0.640E-03  0.904E-04  0.640E-03
 13.850  0.213E-02  0.903E-04  0.649E-03  0.649E-03  0.903E-04  0.649E-03
 13.860  0.216E-02  0.900E-04  0.660E-03  0.660E-03  0.900E-04  0.660E-03
 13.870  0.220E-02  0.897E-04  0.672E-03  0.672E-03  0.897E-04  0.672E-03
 13.880  0.223E-02  0.892E-04  0.685E-03  0.685E-03  0.892E-04  0.685E-03
 13.890  0.227E-02  0.886E-04  0.699E-03  0.699E-03  0.886E-04  0.699E-03
 13.900  0.231E-02  0.878E-04  0.712E-03  0.712E-03  0.878E-04  0.712E-03
 13.910  0.235E-02  0.869E-04  0.725E-03  0.725E-03  0.869E-04  0.725E-03
 13.920  0.238E-02  0.858E-04  0.736E-03  0.736E-03  0.858E-04  0.736E-03
 13.930  0.240E-02  0.846E-04  0.745E-03  0.745E-03  0.846E-04  0.745E-03
 13.940  0.242E-02  0.833E-04  0.752E-03  0.752E-03  0.833E-04  0.752E-03
 13.950  0.243E-02  0.818E-04  0.756E-03  0.756E-03  0.818E-04  0.756E-03
 13.960  0.243E-02  0.802E-04  0.758E-03  0.758E-03  0.802E-04  0.758E-03
 13.970  0.243E-02  0.786E-04  0.758E-03  0.758E-03  0.786E-04  0.758E-03
 13.980  0.242E-02  0.768E-04  0.755E-03  0.755E-03  0.768E-04  0.755E-03
 13.990  0.240E-02  0.750E-04  0.750E-03  0.750E-03  0.750E-04  0.750E-03
 14.000  0.238E-02  0.732E-04  0.744E-03  0.744E-03  0.732E-04  0.744E-03
 14.010  0.235E-02  0.713E-04  0.737E-03  0.737E-03  0.713E-04  0.737E-03
 14.020  0.233E-02  0.694E-04  0.730E-03  0.730E-03  0.694E-04  0.730E-03
 14.030  0.230E-02  0.675E-04  0.723E-03  0.723E-03  0.675E-04  0.723E-03
 14.040  0.228E-02  0.656E-04  0.717E-03  0.717E-03  0.656E-04  0.717E-03
 14.050  0.226E-02  0.637E-04  0.712E-03  0.712E-03  0.637E-04  0.712E-03
 14.060  0.225E-02  0.618E-04  0.709E-03  0.709E-03  0.618E-04  0.709E-03
 14.070  0.224E-02  0.599E-04  0.707E-03  0.707E-03  0.599E-04  0.707E-03
 14.080  0.224E-02  0.581E-04  0.708E-03  0.708E-03  0.581E-04  0.708E-03
 14.090  0.225E-02  0.564E-04  0.711E-03  0.711E-03  0.564E-04  0.711E-03
 14.100  0.226E-02  0.547E-04  0.716E-03  0.716E-03  0.547E-04  0.716E-03
 14.110  0.227E-02  0.530E-04  0.722E-03  0.722E-03  0.530E-04  0.722E-03
 14.120  0.229E-02  0.514E-04  0.730E-03  0.730E-03  0.514E-04  0.730E-03
 14.130  0.232E-02  0.499E-04  0.739E-03  0.739E-03  0.499E-04  0.739E-03
 14.140  0.234E-02  0.484E-04  0.748E-03  0.748E-03  0.484E-04  0.748E-03
 14.150  0.237E-02  0.470E-04  0.757E-03  0.757E-03  0.470E-04  0.757E-03
 14.160  0.239E-02  0.456E-04  0.766E-03  0.766E-03  0.456E-04  0.766E-03
 14.170  0.241E-02  0.443E-04  0.772E-03  0.772E-03  0.443E-04  0.772E-03
 14.180  0.242E-02  0.430E-04  0.777E-03  0.777E-03  0.430E-04  0.777E-03
 14.190  0.242E-02  0.417E-04  0.780E-03  0.780E-03  0.417E-04  0.780E-03
 14.200  0.242E-02  0.404E-04  0.780E-03  0.780E-03  0.404E-04  0.780E-03
 14.210  0.241E-02  0.391E-04  0.777E-03  0.777E-03  0.391E-04  0.777E-03
 14.220  0.239E-02  0.379E-04  0.770E-03  0.770E-03  0.379E-04  0.770E-03
 14.230  0.235E-02  0.365E-04  0.760E-03  0.760E-03  0.365E-04  0.760E-03
 14.240  0.231E-02  0.352E-04  0.747E-03  0.747E-03  0.352E-04  0.747E-03
 14.250  0.226E-02  0.338E-04  0.730E-03  0.730E-03  0.338E-04  0.730E-03
 14.260  0.220E-02  0.324E-04  0.711E-03  0.711E-03  0.324E-04  0.711E-03
 14.270  0.213E-02  0.310E-04  0.689E-03  0.689E-03  0.310E-04  0.689E-03
 14.280  0.205E-02  0.295E-04  0.665E-03  0.665E-03  0.295E-04  0.665E-03
 14.290  0.197E-02  0.280E-04  0.638E-03  0.638E-03  0.280E-04  0.638E-03
 14.300  0.189E-02  0.265E-04  0.611E-03  0.611E-03  0.265E-04  0.611E-03
 14.310  0.180E-02  0.250E-04  0.582E-03  0.582E-03  0.250E-04  0.582E-03
 14.320  0.171E-02  0.235E-04  0.554E-03  0.554E-03  0.235E-04  0.554E-03
 14.330  0.162E-02  0.220E-04  0.525E-03  0.525E-03  0.220E-04  0.525E-03
 14.340  0.153E-02  0.206E-04  0.497E-03  0.497E-03  0.206E-04  0.497E-03
 14.350  0.145E-02  0.192E-04  0.470E-03  0.470E-03  0.192E-04  0.470E-03
 14.360  0.137E-02  0.179E-04  0.445E-03  0.445E-03  0.179E-04  0.445E-03
 14.370  0.130E-02  0.166E-04  0.422E-03  0.422E-03  0.166E-04  0.422E-03
 14.380  0.124E-02  0.155E-04  0.402E-03  0.402E-03  0.155E-04  0.402E-03
 14.390  0.118E-02  0.146E-04  0.385E-03  0.385E-03  0.146E-04  0.385E-03
 14.400  0.114E-02  0.137E-04  0.370E-03  0.370E-03  0.137E-04  0.370E-03
 14.410  0.111E-02  0.131E-04  0.360E-03  0.360E-03  0.131E-04  0.360E-03
 14.420  0.108E-02  0.126E-04  0.353E-03  0.353E-03  0.126E-04  0.353E-03
 14.430  0.107E-02  0.123E-04  0.350E-03  0.350E-03  0.123E-04  0.350E-03
 14.440  0.108E-02  0.122E-04  0.351E-03  0.351E-03  0.122E-04  0.351E-03
 14.450  0.110E-02  0.125E-04  0.357E-03  0.357E-03  0.125E-04  0.357E-03
 14.460  0.113E-02  0.129E-04  0.366E-03  0.366E-03  0.129E-04  0.366E-03
 14.470  0.117E-02  0.137E-04  0.380E-03  0.380E-03  0.137E-04  0.380E-03
 14.480  0.122E-02  0.148E-04  0.398E-03  0.398E-03  0.148E-04  0.398E-03
 14.490  0.129E-02  0.163E-04  0.420E-03  0.420E-03  0.163E-04  0.420E-03
 14.500  0.137E-02  0.182E-04  0.446E-03  0.446E-03  0.182E-04  0.446E-03
 14.510  0.147E-02  0.205E-04  0.475E-03  0.475E-03  0.205E-04  0.475E-03
 14.520  0.157E-02  0.233E-04  0.508E-03  0.508E-03  0.233E-04  0.508E-03
 14.530  0.169E-02  0.266E-04  0.544E-03  0.544E-03  0.266E-04  0.544E-03
 14.540  0.181E-02  0.306E-04  0.583E-03  0.583E-03  0.306E-04  0.583E-03
 14.550  0.194E-02  0.352E-04  0.624E-03  0.624E-03  0.352E-04  0.624E-03
 14.560  0.209E-02  0.405E-04  0.668E-03  0.668E-03  0.405E-04  0.668E-03
 14.570  0.224E-02  0.467E-04  0.714E-03  0.714E-03  0.467E-04  0.714E-03
 14.580  0.239E-02  0.537E-04  0.762E-03  0.762E-03  0.537E-04  0.762E-03
 14.590  0.256E-02  0.616E-04  0.812E-03  0.812E-03  0.616E-04  0.812E-03
 14.600  0.273E-02  0.705E-04  0.864E-03  0.864E-03  0.705E-04  0.864E-03
 14.610  0.291E-02  0.805E-04  0.916E-03  0.916E-03  0.805E-04  0.916E-03
 14.620  0.309E-02  0.915E-04  0.970E-03  0.970E-03  0.915E-04  0.970E-03
 14.630  0.328E-02  0.104E-03  0.102E-02  0.102E-02  0.104E-03  0.102E-02
 14.640  0.347E-02  0.117E-03  0.108E-02  0.108E-02  0.117E-03  0.108E-02
 14.650  0.367E-02  0.132E-03  0.113E-02  0.113E-02  0.132E-03  0.113E-02
 14.660  0.386E-02  0.147E-03  0.119E-02  0.119E-02  0.147E-03  0.119E-02
 14.670  0.406E-02  0.164E-03  0.124E-02  0.124E-02  0.164E-03  0.124E-02
 14.680  0.426E-02  0.182E-03  0.130E-02  0.130E-02  0.182E-03  0.130E-02
 14.690  0.446E-02  0.201E-03  0.135E-02  0.135E-02  0.201E-03  0.135E-02
 14.700  0.465E-02  0.221E-03  0.140E-02  0.140E-02  0.221E-03  0.140E-02
 14.710  0.484E-02  0.242E-03  0.145E-02  0.145E-02  0.242E-03  0.145E-02
 14.720  0.503E-02  0.264E-03  0.150E-02  0.150E-02  0.264E-03  0.150E-02
 14.730  0.521E-02  0.286E-03  0.155E-02  0.155E-02  0.286E-03  0.155E-02
 14.740  0.539E-02  0.309E-03  0.159E-02  0.159E-02  0.309E-03  0.159E-02
 14.750  0.557E-02  0.332E-03  0.163E-02  0.163E-02  0.332E-03  0.163E-02
 14.760  0.574E-02  0.356E-03  0.168E-02  0.168E-02  0.356E-03  0.168E-02
 14.770  0.590E-02  0.380E-03  0.171E-02  0.171E-02  0.380E-03  0.171E-02
 14.780  0.606E-02  0.404E-03  0.175E-02  0.175E-02  0.404E-03  0.175E-02
 14.790  0.622E-02  0.428E-03  0.179E-02  0.179E-02  0.428E-03  0.179E-02
 14.800  0.637E-02  0.451E-03  0.182E-02  0.182E-02  0.451E-03  0.182E-02
 14.810  0.653E-02  0.475E-03  0.186E-02  0.186E-02  0.475E-03  0.186E-02
 14.820  0.668E-02  0.498E-03  0.189E-02  0.189E-02  0.498E-03  0.189E-02
 14.830  0.682E-02  0.520E-03  0.193E-02  0.193E-02  0.520E-03  0.193E-02
 14.840  0.697E-02  0.541E-03  0.196E-02  0.196E-02  0.541E-03  0.196E-02
 14.850  0.713E-02  0.561E-03  0.200E-02  0.200E-02  0.561E-03  0.200E-02
 14.860  0.728E-02  0.581E-03  0.204E-02  0.204E-02  0.581E-03  0.204E-02
 14.870  0.743E-02  0.598E-03  0.208E-02  0.208E-02  0.598E-03  0.208E-02
 14.880  0.758E-02  0.615E-03  0.212E-02  0.212E-02  0.615E-03  0.212E-02
 14.890  0.773E-02  0.629E-03  0.216E-02  0.216E-02  0.629E-03  0.216E-02
 14.900  0.789E-02  0.642E-03  0.220E-02  0.220E-02  0.642E-03  0.220E-02
 14.910  0.803E-02  0.652E-03  0.224E-02  0.224E-02  0.652E-03  0.224E-02
 14.920  0.818E-02  0.660E-03  0.228E-02  0.228E-02  0.660E-03  0.228E-02
 14.930  0.831E-02  0.666E-03  0.233E-02  0.233E-02  0.666E-03  0.233E-02
 14.940  0.843E-02  0.669E-03  0.237E-02  0.237E-02  0.669E-03  0.237E-02
 14.950  0.855E-02  0.669E-03  0.240E-02  0.240E-02  0.669E-03  0.240E-02
 14.960  0.864E-02  0.667E-03  0.244E-02  0.244E-02  0.667E-03  0.244E-02
 14.970  0.872E-02  0.661E-03  0.246E-02  0.246E-02  0.661E-03  0.246E-02
 14.980  0.877E-02  0.653E-03  0.249E-02  0.249E-02  0.653E-03  0.249E-02
 14.990  0.880E-02  0.642E-03  0.250E-02  0.250E-02  0.642E-03  0.250E-02
 15.000  0.880E-02  0.629E-03  0.251E-02  0.251E-02  0.629E-03  0.251E-02
 15.010  0.878E-02  0.612E-03  0.252E-02  0.252E-02  0.612E-03  0.252E-02
 15.020  0.872E-02  0.594E-03  0.251E-02  0.251E-02  0.594E-03  0.251E-02
 15.030  0.864E-02  0.574E-03  0.250E-02  0.250E-02  0.574E-03  0.250E-02
 15.040  0.854E-02  0.552E-03  0.248E-02  0.248E-02  0.552E-03  0.248E-02
 15.050  0.841E-02  0.528E-03  0.245E-02  0.245E-02  0.528E-03  0.245E-02
 15.060  0.825E-02  0.503E-03  0.241E-02  0.241E-02  0.503E-03  0.241E-02
 15.070  0.807E-02  0.478E-03  0.237E-02  0.237E-02  0.478E-03  0.237E-02
 15.080  0.788E-02  0.452E-03  0.233E-02  0.233E-02  0.452E-03  0.233E-02
 15.090  0.768E-02  0.425E-03  0.228E-02  0.228E-02  0.425E-03  0.228E-02
 15.100  0.746E-02  0.399E-03  0.222E-02  0.222E-02  0.399E-03  0.222E-02
 15.110  0.725E-02  0.373E-03  0.217E-02  0.217E-02  0.373E-03  0.217E-02
 15.120  0.703E-02  0.348E-03  0.211E-02  0.211E-02  0.348E-03  0.211E-02
 15.130  0.681E-02  0.324E-03  0.206E-02  0.206E-02  0.324E-03  0.206E-02
 15.140  0.661E-02  0.300E-03  0.200E-02  0.200E-02  0.300E-03  0.200E-02
 15.150  0.641E-02  0.278E-03  0.195E-02  0.195E-02  0.278E-03  0.195E-02
 15.160  0.622E-02  0.257E-03  0.190E-02  0.190E-02  0.257E-03  0.190E-02
 15.170  0.605E-02  0.237E-03  0.186E-02  0.186E-02  0.237E-03  0.186E-02
 15.180  0.589E-02  0.219E-03  0.182E-02  0.182E-02  0.219E-03  0.182E-02
 15.190  0.575E-02  0.202E-03  0.178E-02  0.178E-02  0.202E-03  0.178E-02
 15.200  0.562E-02  0.187E-03  0.175E-02  0.175E-02  0.187E-03  0.175E-02
 15.210  0.551E-02  0.173E-03  0.172E-02  0.172E-02  0.173E-03  0.172E-02
 15.220  0.541E-02  0.160E-03  0.170E-02  0.170E-02  0.160E-03  0.170E-02
 15.230  0.532E-02  0.148E-03  0.167E-02  0.167E-02  0.148E-03  0.167E-02
 15.240  0.524E-02  0.137E-03  0.165E-02  0.165E-02  0.137E-03  0.165E-02
 15.250  0.516E-02  0.128E-03  0.164E-02  0.164E-02  0.128E-03  0.164E-02
 15.260  0.510E-02  0.119E-03  0.162E-02  0.162E-02  0.119E-03  0.162E-02
 15.270  0.504E-02  0.112E-03  0.160E-02  0.160E-02  0.112E-03  0.160E-02
 15.280  0.498E-02  0.105E-03  0.159E-02  0.159E-02  0.105E-03  0.159E-02
 15.290  0.491E-02  0.986E-04  0.157E-02  0.157E-02  0.986E-04  0.157E-02
 15.300  0.485E-02  0.930E-04  0.156E-02  0.156E-02  0.930E-04  0.156E-02
 15.310  0.479E-02  0.879E-04  0.154E-02  0.154E-02  0.879E-04  0.154E-02
 15.320  0.472E-02  0.832E-04  0.152E-02  0.152E-02  0.832E-04  0.152E-02
 15.330  0.465E-02  0.789E-04  0.150E-02  0.150E-02  0.789E-04  0.150E-02
 15.340  0.457E-02  0.749E-04  0.147E-02  0.147E-02  0.749E-04  0.147E-02
 15.350  0.449E-02  0.712E-04  0.145E-02  0.145E-02  0.712E-04  0.145E-02
 15.360  0.440E-02  0.677E-04  0.142E-02  0.142E-02  0.677E-04  0.142E-02
 15.370  0.431E-02  0.644E-04  0.139E-02  0.139E-02  0.644E-04  0.139E-02
 15.380  0.421E-02  0.612E-04  0.136E-02  0.136E-02  0.612E-04  0.136E-02
 15.390  0.411E-02  0.582E-04  0.133E-02  0.133E-02  0.582E-04  0.133E-02
 15.400  0.401E-02  0.554E-04  0.130E-02  0.130E-02  0.554E-04  0.130E-02
 15.410  0.391E-02  0.527E-04  0.127E-02  0.127E-02  0.527E-04  0.127E-02
 15.420  0.381E-02  0.501E-04  0.124E-02  0.124E-02  0.501E-04  0.124E-02
 15.430  0.371E-02  0.477E-04  0.120E-02  0.120E-02  0.477E-04  0.120E-02
 15.440  0.361E-02  0.454E-04  0.117E-02  0.117E-02  0.454E-04  0.117E-02
 15.450  0.351E-02  0.433E-04  0.114E-02  0.114E-02  0.433E-04  0.114E-02
 15.460  0.342E-02  0.413E-04  0.111E-02  0.111E-02  0.413E-04  0.111E-02
 15.470  0.332E-02  0.394E-04  0.108E-02  0.108E-02  0.394E-04  0.108E-02
 15.480  0.324E-02  0.377E-04  0.105E-02  0.105E-02  0.377E-04  0.105E-02
 15.490  0.315E-02  0.361E-04  0.103E-02  0.103E-02  0.361E-04  0.103E-02
 15.500  0.307E-02  0.347E-04  0.100E-02  0.100E-02  0.347E-04  0.100E-02
 15.510  0.299E-02  0.334E-04  0.975E-03  0.975E-03  0.334E-04  0.975E-03
 15.520  0.292E-02  0.322E-04  0.952E-03  0.952E-03  0.322E-04  0.952E-03
 15.530  0.285E-02  0.311E-04  0.930E-03  0.930E-03  0.311E-04  0.930E-03
 15.540  0.279E-02  0.301E-04  0.909E-03  0.909E-03  0.301E-04  0.909E-03
 15.550  0.273E-02  0.292E-04  0.889E-03  0.889E-03  0.292E-04  0.889E-03
 15.560  0.267E-02  0.283E-04  0.870E-03  0.870E-03  0.283E-04  0.870E-03
 15.570  0.261E-02  0.275E-04  0.852E-03  0.852E-03  0.275E-04  0.852E-03
 15.580  0.256E-02  0.268E-04  0.834E-03  0.834E-03  0.268E-04  0.834E-03
 15.590  0.250E-02  0.261E-04  0.817E-03  0.817E-03  0.261E-04  0.817E-03
 15.600  0.245E-02  0.254E-04  0.800E-03  0.800E-03  0.254E-04  0.800E-03
 15.610  0.240E-02  0.247E-04  0.784E-03  0.784E-03  0.247E-04  0.784E-03
 15.620  0.235E-02  0.240E-04  0.768E-03  0.768E-03  0.240E-04  0.768E-03
 15.630  0.230E-02  0.233E-04  0.752E-03  0.752E-03  0.233E-04  0.752E-03
 15.640  0.225E-02  0.227E-04  0.736E-03  0.736E-03  0.227E-04  0.736E-03
 15.650  0.221E-02  0.220E-04  0.721E-03  0.721E-03  0.220E-04  0.721E-03
 15.660  0.216E-02  0.214E-04  0.705E-03  0.705E-03  0.214E-04  0.705E-03
 15.670  0.211E-02  0.207E-04  0.690E-03  0.690E-03  0.207E-04  0.690E-03
 15.680  0.206E-02  0.201E-04  0.675E-03  0.675E-03  0.201E-04  0.675E-03
 15.690  0.202E-02  0.195E-04  0.660E-03  0.660E-03  0.195E-04  0.660E-03
 15.700  0.197E-02  0.189E-04  0.645E-03  0.645E-03  0.189E-04  0.645E-03
 15.710  0.193E-02  0.183E-04  0.631E-03  0.631E-03  0.183E-04  0.631E-03
 15.720  0.188E-02  0.178E-04  0.616E-03  0.616E-03  0.178E-04  0.616E-03
 15.730  0.184E-02  0.172E-04  0.603E-03  0.603E-03  0.172E-04  0.603E-03
 15.740  0.180E-02  0.167E-04  0.589E-03  0.589E-03  0.167E-04  0.589E-03
 15.750  0.176E-02  0.162E-04  0.576E-03  0.576E-03  0.162E-04  0.576E-03
 15.760  0.172E-02  0.157E-04  0.564E-03  0.564E-03  0.157E-04  0.564E-03
 15.770  0.168E-02  0.152E-04  0.551E-03  0.551E-03  0.152E-04  0.551E-03
 15.780  0.165E-02  0.148E-04  0.540E-03  0.540E-03  0.148E-04  0.540E-03
 15.790  0.161E-02  0.143E-04  0.528E-03  0.528E-03  0.143E-04  0.528E-03
 15.800  0.158E-02  0.138E-04  0.517E-03  0.517E-03  0.138E-04  0.517E-03
 15.810  0.154E-02  0.134E-04  0.506E-03  0.506E-03  0.134E-04  0.506E-03
 15.820  0.151E-02  0.129E-04  0.495E-03  0.495E-03  0.129E-04  0.495E-03
 15.830  0.148E-02  0.125E-04  0.485E-03  0.485E-03  0.125E-04  0.485E-03
 15.840  0.145E-02  0.120E-04  0.475E-03  0.475E-03  0.120E-04  0.475E-03
 15.850  0.142E-02  0.116E-04  0.464E-03  0.464E-03  0.116E-04  0.464E-03
 15.860  0.139E-02  0.111E-04  0.454E-03  0.454E-03  0.111E-04  0.454E-03
 15.870  0.135E-02  0.107E-04  0.445E-03  0.445E-03  0.107E-04  0.445E-03
 15.880  0.132E-02  0.102E-04  0.435E-03  0.435E-03  0.102E-04  0.435E-03
 15.890  0.129E-02  0.979E-05  0.425E-03  0.425E-03  0.979E-05  0.425E-03
 15.900  0.127E-02  0.938E-05  0.416E-03  0.416E-03  0.938E-05  0.416E-03
 15.910  0.124E-02  0.899E-05  0.406E-03  0.406E-03  0.899E-05  0.406E-03
 15.920  0.121E-02  0.863E-05  0.397E-03  0.397E-03  0.863E-05  0.397E-03
 15.930  0.118E-02  0.829E-05  0.389E-03  0.389E-03  0.829E-05  0.389E-03
 15.940  0.116E-02  0.798E-05  0.380E-03  0.380E-03  0.798E-05  0.380E-03
 15.950  0.113E-02  0.771E-05  0.372E-03  0.372E-03  0.771E-05  0.372E-03
 15.960  0.111E-02  0.746E-05  0.364E-03  0.364E-03  0.746E-05  0.364E-03
 15.970  0.109E-02  0.725E-05  0.357E-03  0.357E-03  0.725E-05  0.357E-03
 15.980  0.106E-02  0.706E-05  0.350E-03  0.350E-03  0.706E-05  0.350E-03
 15.990  0.104E-02  0.690E-05  0.343E-03  0.343E-03  0.690E-05  0.343E-03
 16.000  0.102E-02  0.676E-05  0.336E-03  0.336E-03  0.676E-05  0.336E-03
 16.010  0.100E-02  0.663E-05  0.330E-03  0.330E-03  0.663E-05  0.330E-03
 16.020  0.984E-03  0.652E-05  0.324E-03  0.324E-03  0.652E-05  0.324E-03
 16.030  0.966E-03  0.640E-05  0.318E-03  0.318E-03  0.640E-05  0.318E-03
 16.040  0.947E-03  0.629E-05  0.311E-03  0.311E-03  0.629E-05  0.311E-03
 16.050  0.928E-03  0.617E-05  0.305E-03  0.305E-03  0.617E-05  0.305E-03
 16.060  0.909E-03  0.604E-05  0.299E-03  0.299E-03  0.604E-05  0.299E-03
 16.070  0.890E-03  0.589E-05  0.293E-03  0.293E-03  0.589E-05  0.293E-03
 16.080  0.870E-03  0.573E-05  0.286E-03  0.286E-03  0.573E-05  0.286E-03
 16.090  0.849E-03  0.556E-05  0.279E-03  0.279E-03  0.556E-05  0.279E-03
 16.100  0.828E-03  0.537E-05  0.272E-03  0.272E-03  0.537E-05  0.272E-03
 16.110  0.806E-03  0.517E-05  0.265E-03  0.265E-03  0.517E-05  0.265E-03
 16.120  0.784E-03  0.495E-05  0.258E-03  0.258E-03  0.495E-05  0.258E-03
 16.130  0.761E-03  0.473E-05  0.251E-03  0.251E-03  0.473E-05  0.251E-03
 16.140  0.738E-03  0.450E-05  0.243E-03  0.243E-03  0.450E-05  0.243E-03
 16.150  0.716E-03  0.428E-05  0.236E-03  0.236E-03  0.428E-05  0.236E-03
 16.160  0.693E-03  0.406E-05  0.228E-03  0.228E-03  0.406E-05  0.228E-03
 16.170  0.672E-03  0.386E-05  0.221E-03  0.221E-03  0.386E-05  0.221E-03
 16.180  0.651E-03  0.366E-05  0.215E-03  0.215E-03  0.366E-05  0.215E-03
 16.190  0.631E-03  0.349E-05  0.208E-03  0.208E-03  0.349E-05  0.208E-03
 16.200  0.612E-03  0.334E-05  0.202E-03  0.202E-03  0.334E-05  0.202E-03
 16.210  0.595E-03  0.321E-05  0.196E-03  0.196E-03  0.321E-05  0.196E-03
 16.220  0.579E-03  0.310E-05  0.191E-03  0.191E-03  0.310E-05  0.191E-03
 16.230  0.564E-03  0.302E-05  0.186E-03  0.186E-03  0.302E-05  0.186E-03
 16.240  0.550E-03  0.296E-05  0.181E-03  0.181E-03  0.296E-05  0.181E-03
 16.250  0.537E-03  0.293E-05  0.177E-03  0.177E-03  0.293E-05  0.177E-03
 16.260  0.525E-03  0.291E-05  0.173E-03  0.173E-03  0.291E-05  0.173E-03
 16.270  0.514E-03  0.291E-05  0.170E-03  0.170E-03  0.291E-05  0.170E-03
 16.280  0.504E-03  0.293E-05  0.166E-03  0.166E-03  0.293E-05  0.166E-03
 16.290  0.494E-03  0.296E-05  0.163E-03  0.163E-03  0.296E-05  0.163E-03
 16.300  0.484E-03  0.301E-05  0.159E-03  0.159E-03  0.301E-05  0.159E-03
 16.310  0.474E-03  0.307E-05  0.156E-03  0.156E-03  0.307E-05  0.156E-03
 16.320  0.465E-03  0.315E-05  0.153E-03  0.153E-03  0.315E-05  0.153E-03
 16.330  0.456E-03  0.324E-05  0.150E-03  0.150E-03  0.324E-05  0.150E-03
 16.340  0.447E-03  0.336E-05  0.147E-03  0.147E-03  0.336E-05  0.147E-03
 16.350  0.438E-03  0.350E-05  0.144E-03  0.144E-03  0.350E-05  0.144E-03
 16.360  0.430E-03  0.368E-05  0.141E-03  0.141E-03  0.368E-05  0.141E-03
 16.370  0.422E-03  0.390E-05  0.138E-03  0.138E-03  0.390E-05  0.138E-03
 16.380  0.416E-03  0.417E-05  0.136E-03  0.136E-03  0.417E-05  0.136E-03
 16.390  0.410E-03  0.450E-05  0.134E-03  0.134E-03  0.450E-05  0.134E-03
 16.400  0.407E-03  0.491E-05  0.132E-03  0.132E-03  0.491E-05  0.132E-03
 16.410  0.405E-03  0.540E-05  0.131E-03  0.131E-03  0.540E-05  0.131E-03
 16.420  0.405E-03  0.599E-05  0.131E-03  0.131E-03  0.599E-05  0.131E-03
 16.430  0.407E-03  0.668E-05  0.131E-03  0.131E-03  0.668E-05  0.131E-03
 16.440  0.412E-03  0.749E-05  0.132E-03  0.132E-03  0.749E-05  0.132E-03
 16.450  0.419E-03  0.843E-05  0.134E-03  0.134E-03  0.843E-05  0.134E-03
 16.460  0.428E-03  0.949E-05  0.136E-03  0.136E-03  0.949E-05  0.136E-03
 16.470  0.441E-03  0.107E-04  0.140E-03  0.140E-03  0.107E-04  0.140E-03
 16.480  0.456E-03  0.120E-04  0.144E-03  0.144E-03  0.120E-04  0.144E-03
 16.490  0.473E-03  0.135E-04  0.149E-03  0.149E-03  0.135E-04  0.149E-03
 16.500  0.493E-03  0.151E-04  0.154E-03  0.154E-03  0.151E-04  0.154E-03
 16.510  0.515E-03  0.168E-04  0.160E-03  0.160E-03  0.168E-04  0.160E-03
 16.520  0.539E-03  0.186E-04  0.167E-03  0.167E-03  0.186E-04  0.167E-03
 16.530  0.564E-03  0.206E-04  0.174E-03  0.174E-03  0.206E-04  0.174E-03
 16.540  0.592E-03  0.226E-04  0.182E-03  0.182E-03  0.226E-04  0.182E-03
 16.550  0.620E-03  0.247E-04  0.190E-03  0.190E-03  0.247E-04  0.190E-03
 16.560  0.649E-03  0.268E-04  0.199E-03  0.199E-03  0.268E-04  0.199E-03
 16.570  0.679E-03  0.290E-04  0.207E-03  0.207E-03  0.290E-04  0.207E-03
 16.580  0.709E-03  0.311E-04  0.216E-03  0.216E-03  0.311E-04  0.216E-03
 16.590  0.740E-03  0.333E-04  0.224E-03  0.224E-03  0.333E-04  0.224E-03
 16.600  0.770E-03  0.355E-04  0.233E-03  0.233E-03  0.355E-04  0.233E-03
 16.610  0.800E-03  0.377E-04  0.242E-03  0.242E-03  0.377E-04  0.242E-03
 16.620  0.829E-03  0.398E-04  0.250E-03  0.250E-03  0.398E-04  0.250E-03
 16.630  0.858E-03  0.419E-04  0.258E-03  0.258E-03  0.419E-04  0.258E-03
 16.640  0.887E-03  0.440E-04  0.266E-03  0.266E-03  0.440E-04  0.266E-03
 16.650  0.914E-03  0.461E-04  0.274E-03  0.274E-03  0.461E-04  0.274E-03
 16.660  0.941E-03  0.482E-04  0.282E-03  0.282E-03  0.482E-04  0.282E-03
 16.670  0.968E-03  0.503E-04  0.289E-03  0.289E-03  0.503E-04  0.289E-03
 16.680  0.994E-03  0.523E-04  0.297E-03  0.297E-03  0.523E-04  0.297E-03
 16.690  0.102E-02  0.544E-04  0.304E-03  0.304E-03  0.544E-04  0.304E-03
 16.700  0.105E-02  0.565E-04  0.311E-03  0.311E-03  0.565E-04  0.311E-03
 16.710  0.107E-02  0.586E-04  0.318E-03  0.318E-03  0.586E-04  0.318E-03
 16.720  0.110E-02  0.607E-04  0.326E-03  0.326E-03  0.607E-04  0.326E-03
 16.730  0.112E-02  0.628E-04  0.333E-03  0.333E-03  0.628E-04  0.333E-03
 16.740  0.115E-02  0.649E-04  0.340E-03  0.340E-03  0.649E-04  0.340E-03
 16.750  0.118E-02  0.670E-04  0.347E-03  0.347E-03  0.670E-04  0.347E-03
 16.760  0.120E-02  0.691E-04  0.355E-03  0.355E-03  0.691E-04  0.355E-03
 16.770  0.123E-02  0.711E-04  0.362E-03  0.362E-03  0.711E-04  0.362E-03
 16.780  0.125E-02  0.731E-04  0.369E-03  0.369E-03  0.731E-04  0.369E-03
 16.790  0.128E-02  0.750E-04  0.376E-03  0.376E-03  0.750E-04  0.376E-03
 16.800  0.130E-02  0.768E-04  0.383E-03  0.383E-03  0.768E-04  0.383E-03
 16.810  0.133E-02  0.785E-04  0.390E-03  0.390E-03  0.785E-04  0.390E-03
 16.820  0.135E-02  0.802E-04  0.396E-03  0.396E-03  0.802E-04  0.396E-03
 16.830  0.137E-02  0.817E-04  0.402E-03  0.402E-03  0.817E-04  0.402E-03
 16.840  0.139E-02  0.830E-04  0.408E-03  0.408E-03  0.830E-04  0.408E-03
 16.850  0.141E-02  0.843E-04  0.414E-03  0.414E-03  0.843E-04  0.414E-03
 16.860  0.143E-02  0.855E-04  0.419E-03  0.419E-03  0.855E-04  0.419E-03
 16.870  0.144E-02  0.866E-04  0.424E-03  0.424E-03  0.866E-04  0.424E-03
 16.880  0.146E-02  0.877E-04  0.428E-03  0.428E-03  0.877E-04  0.428E-03
 16.890  0.148E-02  0.887E-04  0.433E-03  0.433E-03  0.887E-04  0.433E-03
 16.900  0.149E-02  0.897E-04  0.437E-03  0.437E-03  0.897E-04  0.437E-03
 16.910  0.151E-02  0.907E-04  0.441E-03  0.441E-03  0.907E-04  0.441E-03
 16.920  0.152E-02  0.917E-04  0.445E-03  0.445E-03  0.917E-04  0.445E-03
 16.930  0.153E-02  0.928E-04  0.449E-03  0.449E-03  0.928E-04  0.449E-03
 16.940  0.155E-02  0.939E-04  0.453E-03  0.453E-03  0.939E-04  0.453E-03
 16.950  0.156E-02  0.950E-04  0.457E-03  0.457E-03  0.950E-04  0.457E-03
 16.960  0.157E-02  0.962E-04  0.461E-03  0.461E-03  0.962E-04  0.461E-03
 16.970  0.159E-02  0.974E-04  0.465E-03  0.465E-03  0.974E-04  0.465E-03
 16.980  0.160E-02  0.986E-04  0.468E-03  0.468E-03  0.986E-04  0.468E-03
 16.990  0.162E-02  0.999E-04  0.472E-03  0.472E-03  0.999E-04  0.472E-03
 17.000  0.163E-02  0.101E-03  0.475E-03  0.475E-03  0.101E-03  0.475E-03
 17.010  0.164E-02  0.102E-03  0.479E-03  0.479E-03  0.102E-03  0.479E-03
 17.020  0.165E-02  0.103E-03  0.482E-03  0.482E-03  0.103E-03  0.482E-03
 17.030  0.166E-02  0.105E-03  0.484E-03  0.484E-03  0.105E-03  0.484E-03
 17.040  0.167E-02  0.106E-03  0.487E-03  0.487E-03  0.106E-03  0.487E-03
 17.050  0.168E-02  0.106E-03  0.489E-03  0.489E-03  0.106E-03  0.489E-03
 17.060  0.169E-02  0.107E-03  0.491E-03  0.491E-03  0.107E-03  0.491E-03
 17.070  0.169E-02  0.108E-03  0.492E-03  0.492E-03  0.108E-03  0.492E-03
 17.080  0.170E-02  0.109E-03  0.493E-03  0.493E-03  0.109E-03  0.493E-03
 17.090  0.170E-02  0.109E-03  0.494E-03  0.494E-03  0.109E-03  0.494E-03
 17.100  0.170E-02  0.110E-03  0.494E-03  0.494E-03  0.110E-03  0.494E-03
 17.110  0.170E-02  0.110E-03  0.494E-03  0.494E-03  0.110E-03  0.494E-03
 17.120  0.170E-02  0.110E-03  0.494E-03  0.494E-03  0.110E-03  0.494E-03
 17.130  0.170E-02  0.111E-03  0.494E-03  0.494E-03  0.111E-03  0.494E-03
 17.140  0.170E-02  0.111E-03  0.494E-03  0.494E-03  0.111E-03  0.494E-03
 17.150  0.170E-02  0.112E-03  0.494E-03  0.494E-03  0.112E-03  0.494E-03
 17.160  0.170E-02  0.112E-03  0.493E-03  0.493E-03  0.112E-03  0.493E-03
 17.170  0.170E-02  0.112E-03  0.493E-03  0.493E-03  0.112E-03  0.493E-03
 17.180  0.171E-02  0.113E-03  0.493E-03  0.493E-03  0.113E-03  0.493E-03
 17.190  0.171E-02  0.113E-03  0.494E-03  0.494E-03  0.113E-03  0.494E-03
 17.200  0.171E-02  0.113E-03  0.494E-03  0.494E-03  0.113E-03  0.494E-03
 17.210  0.171E-02  0.113E-03  0.495E-03  0.495E-03  0.113E-03  0.495E-03
 17.220  0.171E-02  0.113E-03  0.496E-03  0.496E-03  0.113E-03  0.496E-03
 17.230  0.172E-02  0.113E-03  0.496E-03  0.496E-03  0.113E-03  0.496E-03
 17.240  0.172E-02  0.113E-03  0.497E-03  0.497E-03  0.113E-03  0.497E-03
 17.250  0.172E-02  0.113E-03  0.497E-03  0.497E-03  0.113E-03  0.497E-03
 17.260  0.172E-02  0.112E-03  0.497E-03  0.497E-03  0.112E-03  0.497E-03
 17.270  0.171E-02  0.112E-03  0.497E-03  0.497E-03  0.112E-03  0.497E-03
 17.280  0.171E-02  0.111E-03  0.496E-03  0.496E-03  0.111E-03  0.496E-03
 17.290  0.170E-02  0.110E-03  0.495E-03  0.495E-03  0.110E-03  0.495E-03
 17.300  0.170E-02  0.109E-03  0.493E-03  0.493E-03  0.109E-03  0.493E-03
 17.310  0.168E-02  0.107E-03  0.490E-03  0.490E-03  0.107E-03  0.490E-03
 17.320  0.167E-02  0.106E-03  0.486E-03  0.486E-03  0.106E-03  0.486E-03
 17.330  0.165E-02  0.104E-03  0.481E-03  0.481E-03  0.104E-03  0.481E-03
 17.340  0.163E-02  0.102E-03  0.476E-03  0.476E-03  0.102E-03  0.476E-03
 17.350  0.161E-02  0.101E-03  0.470E-03  0.470E-03  0.101E-03  0.470E-03
 17.360  0.159E-02  0.989E-04  0.463E-03  0.463E-03  0.989E-04  0.463E-03
 17.370  0.156E-02  0.972E-04  0.456E-03  0.456E-03  0.972E-04  0.456E-03
 17.380  0.154E-02  0.955E-04  0.448E-03  0.448E-03  0.955E-04  0.448E-03
 17.390  0.151E-02  0.940E-04  0.441E-03  0.441E-03  0.940E-04  0.441E-03
 17.400  0.149E-02  0.926E-04  0.433E-03  0.433E-03  0.926E-04  0.433E-03
 17.410  0.146E-02  0.914E-04  0.426E-03  0.426E-03  0.914E-04  0.426E-03
 17.420  0.144E-02  0.904E-04  0.419E-03  0.419E-03  0.904E-04  0.419E-03
 17.430  0.142E-02  0.896E-04  0.413E-03  0.413E-03  0.896E-04  0.413E-03
 17.440  0.140E-02  0.890E-04  0.407E-03  0.407E-03  0.890E-04  0.407E-03
 17.450  0.138E-02  0.886E-04  0.401E-03  0.401E-03  0.886E-04  0.401E-03
 17.460  0.137E-02  0.883E-04  0.397E-03  0.397E-03  0.883E-04  0.397E-03
 17.470  0.135E-02  0.882E-04  0.393E-03  0.393E-03  0.882E-04  0.393E-03
 17.480  0.134E-02  0.882E-04  0.389E-03  0.389E-03  0.882E-04  0.389E-03
 17.490  0.134E-02  0.882E-04  0.386E-03  0.386E-03  0.882E-04  0.386E-03
 17.500  0.133E-02  0.882E-04  0.384E-03  0.384E-03  0.882E-04  0.384E-03
 17.510  0.132E-02  0.881E-04  0.382E-03  0.382E-03  0.881E-04  0.382E-03
 17.520  0.132E-02  0.880E-04  0.380E-03  0.380E-03  0.880E-04  0.380E-03
 17.530  0.131E-02  0.877E-04  0.378E-03  0.378E-03  0.877E-04  0.378E-03
 17.540  0.130E-02  0.872E-04  0.376E-03  0.376E-03  0.872E-04  0.376E-03
 17.550  0.130E-02  0.865E-04  0.374E-03  0.374E-03  0.865E-04  0.374E-03
 17.560  0.129E-02  0.856E-04  0.372E-03  0.372E-03  0.856E-04  0.372E-03
 17.570  0.128E-02  0.844E-04  0.369E-03  0.369E-03  0.844E-04  0.369E-03
 17.580  0.126E-02  0.830E-04  0.366E-03  0.366E-03  0.830E-04  0.366E-03
 17.590  0.125E-02  0.814E-04  0.363E-03  0.363E-03  0.814E-04  0.363E-03
 17.600  0.124E-02  0.796E-04  0.359E-03  0.359E-03  0.796E-04  0.359E-03
 17.610  0.122E-02  0.776E-04  0.355E-03  0.355E-03  0.776E-04  0.355E-03
 17.620  0.120E-02  0.756E-04  0.351E-03  0.351E-03  0.756E-04  0.351E-03
 17.630  0.119E-02  0.735E-04  0.347E-03  0.347E-03  0.735E-04  0.347E-03
 17.640  0.117E-02  0.714E-04  0.342E-03  0.342E-03  0.714E-04  0.342E-03
 17.650  0.115E-02  0.694E-04  0.338E-03  0.338E-03  0.694E-04  0.338E-03
 17.660  0.114E-02  0.676E-04  0.334E-03  0.334E-03  0.676E-04  0.334E-03
 17.670  0.112E-02  0.658E-04  0.329E-03  0.329E-03  0.658E-04  0.329E-03
 17.680  0.111E-02  0.644E-04  0.326E-03  0.326E-03  0.644E-04  0.326E-03
 17.690  0.109E-02  0.631E-04  0.322E-03  0.322E-03  0.631E-04  0.322E-03
 17.700  0.108E-02  0.622E-04  0.319E-03  0.319E-03  0.622E-04  0.319E-03
 17.710  0.107E-02  0.615E-04  0.316E-03  0.316E-03  0.615E-04  0.316E-03
 17.720  0.106E-02  0.612E-04  0.314E-03  0.314E-03  0.612E-04  0.314E-03
 17.730  0.106E-02  0.612E-04  0.312E-03  0.312E-03  0.612E-04  0.312E-03
 17.740  0.105E-02  0.614E-04  0.311E-03  0.311E-03  0.614E-04  0.311E-03
 17.750  0.105E-02  0.619E-04  0.309E-03  0.309E-03  0.619E-04  0.309E-03
 17.760  0.105E-02  0.627E-04  0.308E-03  0.308E-03  0.627E-04  0.308E-03
 17.770  0.105E-02  0.636E-04  0.307E-03  0.307E-03  0.636E-04  0.307E-03
 17.780  0.105E-02  0.647E-04  0.306E-03  0.306E-03  0.647E-04  0.306E-03
 17.790  0.105E-02  0.659E-04  0.306E-03  0.306E-03  0.659E-04  0.306E-03
 17.800  0.105E-02  0.672E-04  0.305E-03  0.305E-03  0.672E-04  0.305E-03
 17.810  0.105E-02  0.685E-04  0.304E-03  0.304E-03  0.685E-04  0.304E-03
 17.820  0.105E-02  0.697E-04  0.302E-03  0.302E-03  0.697E-04  0.302E-03
 17.830  0.104E-02  0.709E-04  0.301E-03  0.301E-03  0.709E-04  0.301E-03
 17.840  0.104E-02  0.720E-04  0.299E-03  0.299E-03  0.720E-04  0.299E-03
 17.850  0.103E-02  0.729E-04  0.296E-03  0.296E-03  0.729E-04  0.296E-03
 17.860  0.103E-02  0.737E-04  0.294E-03  0.294E-03  0.737E-04  0.294E-03
 17.870  0.102E-02  0.742E-04  0.290E-03  0.290E-03  0.742E-04  0.290E-03
 17.880  0.101E-02  0.745E-04  0.287E-03  0.287E-03  0.745E-04  0.287E-03
 17.890  0.998E-03  0.747E-04  0.283E-03  0.283E-03  0.747E-04  0.283E-03
 17.900  0.985E-03  0.745E-04  0.279E-03  0.279E-03  0.745E-04  0.279E-03
 17.910  0.970E-03  0.742E-04  0.274E-03  0.274E-03  0.742E-04  0.274E-03
 17.920  0.954E-03  0.737E-04  0.269E-03  0.269E-03  0.737E-04  0.269E-03
 17.930  0.937E-03  0.729E-04  0.264E-03  0.264E-03  0.729E-04  0.264E-03
 17.940  0.919E-03  0.720E-04  0.258E-03  0.258E-03  0.720E-04  0.258E-03
 17.950  0.901E-03  0.709E-04  0.253E-03  0.253E-03  0.709E-04  0.253E-03
 17.960  0.882E-03  0.697E-04  0.247E-03  0.247E-03  0.697E-04  0.247E-03
 17.970  0.863E-03  0.684E-04  0.242E-03  0.242E-03  0.684E-04  0.242E-03
 17.980  0.844E-03  0.671E-04  0.237E-03  0.237E-03  0.671E-04  0.237E-03
 17.990  0.825E-03  0.657E-04  0.231E-03  0.231E-03  0.657E-04  0.231E-03
 18.000  0.808E-03  0.643E-04  0.226E-03  0.226E-03  0.643E-04  0.226E-03
 18.010  0.791E-03  0.630E-04  0.222E-03  0.222E-03  0.630E-04  0.222E-03
 18.020  0.775E-03  0.617E-04  0.217E-03  0.217E-03  0.617E-04  0.217E-03
 18.030  0.760E-03  0.605E-04  0.213E-03  0.213E-03  0.605E-04  0.213E-03
 18.040  0.747E-03  0.594E-04  0.209E-03  0.209E-03  0.594E-04  0.209E-03
 18.050  0.735E-03  0.584E-04  0.206E-03  0.206E-03  0.584E-04  0.206E-03
 18.060  0.724E-03  0.576E-04  0.203E-03  0.203E-03  0.576E-04  0.203E-03
 18.070  0.716E-03  0.569E-04  0.201E-03  0.201E-03  0.569E-04  0.201E-03
 18.080  0.708E-03  0.564E-04  0.199E-03  0.199E-03  0.564E-04  0.199E-03
 18.090  0.703E-03  0.560E-04  0.197E-03  0.197E-03  0.560E-04  0.197E-03
 18.100  0.699E-03  0.558E-04  0.196E-03  0.196E-03  0.558E-04  0.196E-03
 18.110  0.696E-03  0.557E-04  0.195E-03  0.195E-03  0.557E-04  0.195E-03
 18.120  0.695E-03  0.558E-04  0.195E-03  0.195E-03  0.558E-04  0.195E-03
 18.130  0.696E-03  0.559E-04  0.195E-03  0.195E-03  0.559E-04  0.195E-03
 18.140  0.699E-03  0.563E-04  0.195E-03  0.195E-03  0.563E-04  0.195E-03
 18.150  0.703E-03  0.567E-04  0.197E-03  0.197E-03  0.567E-04  0.197E-03
 18.160  0.709E-03  0.573E-04  0.198E-03  0.198E-03  0.573E-04  0.198E-03
 18.170  0.717E-03  0.580E-04  0.201E-03  0.201E-03  0.580E-04  0.201E-03
 18.180  0.728E-03  0.588E-04  0.203E-03  0.203E-03  0.588E-04  0.203E-03
 18.190  0.740E-03  0.598E-04  0.207E-03  0.207E-03  0.598E-04  0.207E-03
 18.200  0.755E-03  0.609E-04  0.211E-03  0.211E-03  0.609E-04  0.211E-03
 18.210  0.773E-03  0.621E-04  0.216E-03  0.216E-03  0.621E-04  0.216E-03
 18.220  0.793E-03  0.636E-04  0.222E-03  0.222E-03  0.636E-04  0.222E-03
 18.230  0.815E-03  0.651E-04  0.228E-03  0.228E-03  0.651E-04  0.228E-03
 18.240  0.840E-03  0.669E-04  0.235E-03  0.235E-03  0.669E-04  0.235E-03
 18.250  0.867E-03  0.688E-04  0.243E-03  0.243E-03  0.688E-04  0.243E-03
 18.260  0.897E-03  0.709E-04  0.252E-03  0.252E-03  0.709E-04  0.252E-03
 18.270  0.929E-03  0.732E-04  0.261E-03  0.261E-03  0.732E-04  0.261E-03
 18.280  0.962E-03  0.756E-04  0.270E-03  0.270E-03  0.756E-04  0.270E-03
 18.290  0.997E-03  0.781E-04  0.280E-03  0.280E-03  0.781E-04  0.280E-03
 18.300  0.103E-02  0.808E-04  0.291E-03  0.291E-03  0.808E-04  0.291E-03
 18.310  0.107E-02  0.835E-04  0.302E-03  0.302E-03  0.835E-04  0.302E-03
 18.320  0.111E-02  0.864E-04  0.313E-03  0.313E-03  0.864E-04  0.313E-03
 18.330  0.115E-02  0.893E-04  0.324E-03  0.324E-03  0.893E-04  0.324E-03
 18.340  0.119E-02  0.923E-04  0.335E-03  0.335E-03  0.923E-04  0.335E-03
 18.350  0.123E-02  0.953E-04  0.346E-03  0.346E-03  0.953E-04  0.346E-03
 18.360  0.127E-02  0.983E-04  0.357E-03  0.357E-03  0.983E-04  0.357E-03
 18.370  0.131E-02  0.101E-03  0.368E-03  0.368E-03  0.101E-03  0.368E-03
 18.380  0.135E-02  0.104E-03  0.379E-03  0.379E-03  0.104E-03  0.379E-03
 18.390  0.138E-02  0.107E-03  0.390E-03  0.390E-03  0.107E-03  0.390E-03
 18.400  0.142E-02  0.110E-03  0.401E-03  0.401E-03  0.110E-03  0.401E-03
 18.410  0.146E-02  0.113E-03  0.412E-03  0.412E-03  0.113E-03  0.412E-03
 18.420  0.150E-02  0.115E-03  0.422E-03  0.422E-03  0.115E-03  0.422E-03
 18.430  0.153E-02  0.118E-03  0.433E-03  0.433E-03  0.118E-03  0.433E-03
 18.440  0.157E-02  0.120E-03  0.443E-03  0.443E-03  0.120E-03  0.443E-03
 18.450  0.161E-02  0.123E-03  0.454E-03  0.454E-03  0.123E-03  0.454E-03
 18.460  0.164E-02  0.125E-03  0.465E-03  0.465E-03  0.125E-03  0.465E-03
 18.470  0.168E-02  0.127E-03  0.475E-03  0.475E-03  0.127E-03  0.475E-03
 18.480  0.172E-02  0.129E-03  0.486E-03  0.486E-03  0.129E-03  0.486E-03
 18.490  0.175E-02  0.131E-03  0.498E-03  0.498E-03  0.131E-03  0.498E-03
 18.500  0.179E-02  0.132E-03  0.509E-03  0.509E-03  0.132E-03  0.509E-03
 18.510  0.183E-02  0.134E-03  0.521E-03  0.521E-03  0.134E-03  0.521E-03
 18.520  0.187E-02  0.135E-03  0.533E-03  0.533E-03  0.135E-03  0.533E-03
 18.530  0.191E-02  0.136E-03  0.546E-03  0.546E-03  0.136E-03  0.546E-03
 18.540  0.195E-02  0.137E-03  0.559E-03  0.559E-03  0.137E-03  0.559E-03
 18.550  0.200E-02  0.138E-03  0.573E-03  0.573E-03  0.138E-03  0.573E-03
 18.560  0.204E-02  0.138E-03  0.588E-03  0.588E-03  0.138E-03  0.588E-03
 18.570  0.209E-02  0.139E-03  0.604E-03  0.604E-03  0.139E-03  0.604E-03
 18.580  0.214E-02  0.139E-03  0.620E-03  0.620E-03  0.139E-03  0.620E-03
 18.590  0.219E-02  0.139E-03  0.637E-03  0.637E-03  0.139E-03  0.637E-03
 18.600  0.224E-02  0.139E-03  0.655E-03  0.655E-03  0.139E-03  0.655E-03
 18.610  0.230E-02  0.139E-03  0.673E-03  0.673E-03  0.139E-03  0.673E-03
 18.620  0.236E-02  0.139E-03  0.693E-03  0.693E-03  0.139E-03  0.693E-03
 18.630  0.242E-02  0.138E-03  0.714E-03  0.714E-03  0.138E-03  0.714E-03
 18.640  0.248E-02  0.138E-03  0.735E-03  0.735E-03  0.138E-03  0.735E-03
 18.650  0.255E-02  0.137E-03  0.757E-03  0.757E-03  0.137E-03  0.757E-03
 18.660  0.261E-02  0.136E-03  0.780E-03  0.780E-03  0.136E-03  0.780E-03
 18.670  0.268E-02  0.135E-03  0.804E-03  0.804E-03  0.135E-03  0.804E-03
 18.680  0.276E-02  0.135E-03  0.829E-03  0.829E-03  0.135E-03  0.829E-03
 18.690  0.283E-02  0.134E-03  0.855E-03  0.855E-03  0.134E-03  0.855E-03
 18.700  0.291E-02  0.133E-03  0.881E-03  0.881E-03  0.133E-03  0.881E-03
 18.710  0.299E-02  0.132E-03  0.908E-03  0.908E-03  0.132E-03  0.908E-03
 18.720  0.307E-02  0.131E-03  0.936E-03  0.936E-03  0.131E-03  0.936E-03
 18.730  0.315E-02  0.130E-03  0.964E-03  0.964E-03  0.130E-03  0.964E-03
 18.740  0.324E-02  0.129E-03  0.993E-03  0.993E-03  0.129E-03  0.993E-03
 18.750  0.332E-02  0.128E-03  0.102E-02  0.102E-02  0.128E-03  0.102E-02
 18.760  0.341E-02  0.126E-03  0.105E-02  0.105E-02  0.126E-03  0.105E-02
 18.770  0.350E-02  0.125E-03  0.108E-02  0.108E-02  0.125E-03  0.108E-02
 18.780  0.358E-02  0.124E-03  0.111E-02  0.111E-02  0.124E-03  0.111E-02
 18.790  0.366E-02  0.123E-03  0.114E-02  0.114E-02  0.123E-03  0.114E-02
 18.800  0.375E-02  0.121E-03  0.117E-02  0.117E-02  0.121E-03  0.117E-02
 18.810  0.382E-02  0.120E-03  0.119E-02  0.119E-02  0.120E-03  0.119E-02
 18.820  0.390E-02  0.118E-03  0.122E-02  0.122E-02  0.118E-03  0.122E-02
 18.830  0.396E-02  0.116E-03  0.124E-02  0.124E-02  0.116E-03  0.124E-02
 18.840  0.402E-02  0.114E-03  0.127E-02  0.127E-02  0.114E-03  0.127E-02
 18.850  0.408E-02  0.112E-03  0.128E-02  0.128E-02  0.112E-03  0.128E-02
 18.860  0.412E-02  0.110E-03  0.130E-02  0.130E-02  0.110E-03  0.130E-02
 18.870  0.415E-02  0.108E-03  0.131E-02  0.131E-02  0.108E-03  0.131E-02
 18.880  0.418E-02  0.106E-03  0.132E-02  0.132E-02  0.106E-03  0.132E-02
 18.890  0.419E-02  0.103E-03  0.133E-02  0.133E-02  0.103E-03  0.133E-02
 18.900  0.418E-02  0.100E-03  0.133E-02  0.133E-02  0.100E-03  0.133E-02
 18.910  0.417E-02  0.973E-04  0.132E-02  0.132E-02  0.973E-04  0.132E-02
 18.920  0.414E-02  0.943E-04  0.132E-02  0.132E-02  0.943E-04  0.132E-02
 18.930  0.410E-02  0.913E-04  0.131E-02  0.131E-02  0.913E-04  0.131E-02
 18.940  0.405E-02  0.881E-04  0.129E-02  0.129E-02  0.881E-04  0.129E-02
 18.950  0.398E-02  0.849E-04  0.127E-02  0.127E-02  0.849E-04  0.127E-02
 18.960  0.391E-02  0.817E-04  0.125E-02  0.125E-02  0.817E-04  0.125E-02
 18.970  0.382E-02  0.785E-04  0.122E-02  0.122E-02  0.785E-04  0.122E-02
 18.980  0.373E-02  0.753E-04  0.119E-02  0.119E-02  0.753E-04  0.119E-02
 18.990  0.363E-02  0.721E-04  0.116E-02  0.116E-02  0.721E-04  0.116E-02
 19.000  0.352E-02  0.690E-04  0.113E-02  0.113E-02  0.690E-04  0.113E-02
 19.010  0.340E-02  0.660E-04  0.109E-02  0.109E-02  0.660E-04  0.109E-02
 19.020  0.329E-02  0.630E-04  0.105E-02  0.105E-02  0.630E-04  0.105E-02
 19.030  0.317E-02  0.602E-04  0.102E-02  0.102E-02  0.602E-04  0.102E-02
 19.040  0.305E-02  0.574E-04  0.978E-03  0.978E-03  0.574E-04  0.978E-03
 19.050  0.293E-02  0.548E-04  0.940E-03  0.940E-03  0.548E-04  0.940E-03
 19.060  0.281E-02  0.522E-04  0.903E-03  0.903E-03  0.522E-04  0.903E-03
 19.070  0.270E-02  0.498E-04  0.867E-03  0.867E-03  0.498E-04  0.867E-03
 19.080  0.259E-02  0.475E-04  0.831E-03  0.831E-03  0.475E-04  0.831E-03
 19.090  0.248E-02  0.454E-04  0.797E-03  0.797E-03  0.454E-04  0.797E-03
 19.100  0.238E-02  0.433E-04  0.765E-03  0.765E-03  0.433E-04  0.765E-03
 19.110  0.229E-02  0.414E-04  0.734E-03  0.734E-03  0.414E-04  0.734E-03
 19.120  0.220E-02  0.395E-04  0.705E-03  0.705E-03  0.395E-04  0.705E-03
 19.130  0.211E-02  0.378E-04  0.678E-03  0.678E-03  0.378E-04  0.678E-03
 19.140  0.203E-02  0.361E-04  0.652E-03  0.652E-03  0.361E-04  0.652E-03
 19.150  0.195E-02  0.346E-04  0.628E-03  0.628E-03  0.346E-04  0.628E-03
 19.160  0.188E-02  0.331E-04  0.606E-03  0.606E-03  0.331E-04  0.606E-03
 19.170  0.182E-02  0.317E-04  0.585E-03  0.585E-03  0.317E-04  0.585E-03
 19.180  0.176E-02  0.304E-04  0.565E-03  0.565E-03  0.304E-04  0.565E-03
 19.190  0.170E-02  0.291E-04  0.547E-03  0.547E-03  0.291E-04  0.547E-03
 19.200  0.164E-02  0.279E-04  0.529E-03  0.529E-03  0.279E-04  0.529E-03
 19.210  0.159E-02  0.268E-04  0.512E-03  0.512E-03  0.268E-04  0.512E-03
 19.220  0.154E-02  0.257E-04  0.497E-03  0.497E-03  0.257E-04  0.497E-03
 19.230  0.149E-02  0.247E-04  0.482E-03  0.482E-03  0.247E-04  0.482E-03
 19.240  0.145E-02  0.237E-04  0.467E-03  0.467E-03  0.237E-04  0.467E-03
 19.250  0.141E-02  0.228E-04  0.453E-03  0.453E-03  0.228E-04  0.453E-03
 19.260  0.136E-02  0.218E-04  0.440E-03  0.440E-03  0.218E-04  0.440E-03
 19.270  0.132E-02  0.210E-04  0.427E-03  0.427E-03  0.210E-04  0.427E-03
 19.280  0.128E-02  0.201E-04  0.414E-03  0.414E-03  0.201E-04  0.414E-03
 19.290  0.125E-02  0.193E-04  0.402E-03  0.402E-03  0.193E-04  0.402E-03
 19.300  0.121E-02  0.185E-04  0.390E-03  0.390E-03  0.185E-04  0.390E-03
 19.310  0.117E-02  0.178E-04  0.379E-03  0.379E-03  0.178E-04  0.379E-03
 19.320  0.114E-02  0.170E-04  0.367E-03  0.367E-03  0.170E-04  0.367E-03
 19.330  0.110E-02  0.163E-04  0.356E-03  0.356E-03  0.163E-04  0.356E-03
 19.340  0.107E-02  0.156E-04  0.345E-03  0.345E-03  0.156E-04  0.345E-03
 19.350  0.103E-02  0.150E-04  0.335E-03  0.335E-03  0.150E-04  0.335E-03
 19.360  0.100E-02  0.143E-04  0.324E-03  0.324E-03  0.143E-04  0.324E-03
 19.370  0.969E-03  0.137E-04  0.314E-03  0.314E-03  0.137E-04  0.314E-03
 19.380  0.937E-03  0.130E-04  0.304E-03  0.304E-03  0.130E-04  0.304E-03
 19.390  0.906E-03  0.124E-04  0.294E-03  0.294E-03  0.124E-04  0.294E-03
 19.400  0.876E-03  0.118E-04  0.284E-03  0.284E-03  0.118E-04  0.284E-03
 19.410  0.846E-03  0.113E-04  0.275E-03  0.275E-03  0.113E-04  0.275E-03
 19.420  0.818E-03  0.107E-04  0.265E-03  0.265E-03  0.107E-04  0.265E-03
 19.430  0.790E-03  0.102E-04  0.256E-03  0.256E-03  0.102E-04  0.256E-03
 19.440  0.763E-03  0.968E-05  0.248E-03  0.248E-03  0.968E-05  0.248E-03
 19.450  0.737E-03  0.919E-05  0.239E-03  0.239E-03  0.919E-05  0.239E-03
 19.460  0.712E-03  0.872E-05  0.231E-03  0.231E-03  0.872E-05  0.231E-03
 19.470  0.688E-03  0.828E-05  0.224E-03  0.224E-03  0.828E-05  0.224E-03
 19.480  0.666E-03  0.786E-05  0.217E-03  0.217E-03  0.786E-05  0.217E-03
 19.490  0.645E-03  0.747E-05  0.210E-03  0.210E-03  0.747E-05  0.210E-03
 19.500  0.625E-03  0.711E-05  0.204E-03  0.204E-03  0.711E-05  0.204E-03
 19.510  0.607E-03  0.676E-05  0.198E-03  0.198E-03  0.676E-05  0.198E-03
 19.520  0.590E-03  0.644E-05  0.192E-03  0.192E-03  0.644E-05  0.192E-03
 19.530  0.575E-03  0.615E-05  0.188E-03  0.188E-03  0.615E-05  0.188E-03
 19.540  0.561E-03  0.587E-05  0.183E-03  0.183E-03  0.587E-05  0.183E-03
 19.550  0.547E-03  0.561E-05  0.179E-03  0.179E-03  0.561E-05  0.179E-03
 19.560  0.535E-03  0.536E-05  0.175E-03  0.175E-03  0.536E-05  0.175E-03
 19.570  0.524E-03  0.513E-05  0.171E-03  0.171E-03  0.513E-05  0.171E-03
 19.580  0.512E-03  0.491E-05  0.168E-03  0.168E-03  0.491E-05  0.168E-03
 19.590  0.502E-03  0.470E-05  0.164E-03  0.164E-03  0.470E-05  0.164E-03
 19.600  0.491E-03  0.450E-05  0.161E-03  0.161E-03  0.450E-05  0.161E-03
 19.610  0.481E-03  0.430E-05  0.157E-03  0.157E-03  0.430E-05  0.157E-03
 19.620  0.470E-03  0.411E-05  0.154E-03  0.154E-03  0.411E-05  0.154E-03
 19.630  0.459E-03  0.392E-05  0.150E-03  0.150E-03  0.392E-05  0.150E-03
 19.640  0.448E-03  0.373E-05  0.147E-03  0.147E-03  0.373E-05  0.147E-03
 19.650  0.437E-03  0.355E-05  0.143E-03  0.143E-03  0.355E-05  0.143E-03
 19.660  0.425E-03  0.338E-05  0.139E-03  0.139E-03  0.338E-05  0.139E-03
 19.670  0.413E-03  0.321E-05  0.136E-03  0.136E-03  0.321E-05  0.136E-03
 19.680  0.402E-03  0.304E-05  0.132E-03  0.132E-03  0.304E-05  0.132E-03
 19.690  0.390E-03  0.288E-05  0.128E-03  0.128E-03  0.288E-05  0.128E-03
 19.700  0.378E-03  0.273E-05  0.124E-03  0.124E-03  0.273E-05  0.124E-03
 19.710  0.367E-03  0.259E-05  0.120E-03  0.120E-03  0.259E-05  0.120E-03
 19.720  0.356E-03  0.246E-05  0.117E-03  0.117E-03  0.246E-05  0.117E-03
 19.730  0.345E-03  0.233E-05  0.113E-03  0.113E-03  0.233E-05  0.113E-03
 19.740  0.334E-03  0.221E-05  0.110E-03  0.110E-03  0.221E-05  0.110E-03
 19.750  0.324E-03  0.210E-05  0.107E-03  0.107E-03  0.210E-05  0.107E-03
 19.760  0.315E-03  0.200E-05  0.104E-03  0.104E-03  0.200E-05  0.104E-03
 19.770  0.306E-03  0.190E-05  0.101E-03  0.101E-03  0.190E-05  0.101E-03
 19.780  0.297E-03  0.181E-05  0.979E-04  0.979E-04  0.181E-05  0.979E-04
 19.790  0.289E-03  0.173E-05  0.952E-04  0.952E-04  0.173E-05  0.952E-04
 19.800  0.281E-03  0.165E-05  0.926E-04  0.926E-04  0.165E-05  0.926E-04
 19.810  0.274E-03  0.157E-05  0.902E-04  0.902E-04  0.157E-05  0.902E-04
 19.820  0.266E-03  0.150E-05  0.878E-04  0.878E-04  0.150E-05  0.878E-04
 19.830  0.259E-03  0.143E-05  0.854E-04  0.854E-04  0.143E-05  0.854E-04
 19.840  0.252E-03  0.137E-05  0.832E-04  0.832E-04  0.137E-05  0.832E-04
 19.850  0.245E-03  0.131E-05  0.809E-04  0.809E-04  0.131E-05  0.809E-04
 19.860  0.239E-03  0.124E-05  0.787E-04  0.787E-04  0.124E-05  0.787E-04
 19.870  0.232E-03  0.119E-05  0.765E-04  0.765E-04  0.119E-05  0.765E-04
 19.880  0.225E-03  0.113E-05  0.744E-04  0.744E-04  0.113E-05  0.744E-04
 19.890  0.219E-03  0.107E-05  0.723E-04  0.723E-04  0.107E-05  0.723E-04
 19.900  0.212E-03  0.102E-05  0.702E-04  0.702E-04  0.102E-05  0.702E-04
 19.910  0.206E-03  0.966E-06  0.681E-04  0.681E-04  0.966E-06  0.681E-04
 19.920  0.200E-03  0.915E-06  0.660E-04  0.660E-04  0.915E-06  0.660E-04
 19.930  0.194E-03  0.865E-06  0.639E-04  0.639E-04  0.865E-06  0.639E-04
 19.940  0.187E-03  0.817E-06  0.619E-04  0.619E-04  0.817E-06  0.619E-04
 19.950  0.181E-03  0.770E-06  0.599E-04  0.599E-04  0.770E-06  0.599E-04
 19.960  0.175E-03  0.724E-06  0.578E-04  0.578E-04  0.724E-06  0.578E-04
 19.970  0.169E-03  0.680E-06  0.558E-04  0.558E-04  0.680E-06  0.558E-04
 19.980  0.163E-03  0.636E-06  0.538E-04  0.538E-04  0.636E-06  0.538E-04
 19.990  0.156E-03  0.594E-06  0.517E-04  0.517E-04  0.594E-06  0.517E-04
 20.000  0.150E-03  0.552E-06  0.496E-04  0.496E-04  0.552E-06  0.496E-04
 20.010  0.144E-03  0.512E-06  0.475E-04  0.475E-04  0.512E-06  0.475E-04
 20.020  0.137E-03  0.473E-06  0.454E-04  0.454E-04  0.473E-06  0.454E-04
 20.030  0.131E-03  0.435E-06  0.432E-04  0.432E-04  0.435E-06  0.432E-04
 20.040  0.124E-03  0.398E-06  0.410E-04  0.410E-04  0.398E-06  0.410E-04
 20.050  0.117E-03  0.363E-06  0.388E-04  0.388E-04  0.363E-06  0.388E-04
 20.060  0.110E-03  0.329E-06  0.366E-04  0.366E-04  0.329E-06  0.366E-04
 20.070  0.104E-03  0.297E-06  0.344E-04  0.344E-04  0.297E-06  0.344E-04
 20.080  0.969E-04  0.266E-06  0.321E-04  0.321E-04  0.266E-06  0.321E-04
 20.090  0.902E-04  0.237E-06  0.299E-04  0.299E-04  0.237E-06  0.299E-04
 20.100  0.835E-04  0.210E-06  0.277E-04  0.277E-04  0.210E-06  0.277E-04
 20.110  0.769E-04  0.185E-06  0.255E-04  0.255E-04  0.185E-06  0.255E-04
 20.120  0.704E-04  0.162E-06  0.234E-04  0.234E-04  0.162E-06  0.234E-04
 20.130  0.641E-04  0.141E-06  0.213E-04  0.213E-04  0.141E-06  0.213E-04
 20.140  0.580E-04  0.122E-06  0.193E-04  0.193E-04  0.122E-06  0.193E-04
 20.150  0.522E-04  0.105E-06  0.173E-04  0.173E-04  0.105E-06  0.173E-04
 20.160  0.467E-04  0.896E-07  0.155E-04  0.155E-04  0.896E-07  0.155E-04
 20.170  0.414E-04  0.760E-07  0.138E-04  0.138E-04  0.760E-07  0.138E-04
 20.180  0.365E-04  0.640E-07  0.121E-04  0.121E-04  0.640E-07  0.121E-04
 20.190  0.319E-04  0.536E-07  0.106E-04  0.106E-04  0.536E-07  0.106E-04
 20.200  0.278E-04  0.445E-07  0.922E-05  0.922E-05  0.445E-07  0.922E-05
 20.210  0.239E-04  0.367E-07  0.795E-05  0.795E-05  0.367E-07  0.795E-05
 20.220  0.205E-04  0.301E-07  0.680E-05  0.680E-05  0.301E-07  0.680E-05
 20.230  0.174E-04  0.245E-07  0.577E-05  0.577E-05  0.245E-07  0.577E-05
 20.240  0.146E-04  0.198E-07  0.486E-05  0.486E-05  0.198E-07  0.486E-05
 20.250  0.122E-04  0.159E-07  0.405E-05  0.405E-05  0.159E-07  0.405E-05
 20.260  0.101E-04  0.126E-07  0.336E-05  0.336E-05  0.126E-07  0.336E-05
 20.270  0.828E-05  0.998E-08  0.275E-05  0.275E-05  0.998E-08  0.275E-05
 20.280  0.673E-05  0.782E-08  0.224E-05  0.224E-05  0.782E-08  0.224E-05
 20.290  0.543E-05  0.608E-08  0.181E-05  0.181E-05  0.608E-08  0.181E-05
 20.300  0.434E-05  0.469E-08  0.144E-05  0.144E-05  0.469E-08  0.144E-05
 20.310  0.343E-05  0.358E-08  0.114E-05  0.114E-05  0.358E-08  0.114E-05
 20.320  0.269E-05  0.272E-08  0.896E-06  0.896E-06  0.272E-08  0.896E-06
 20.330  0.209E-05  0.204E-08  0.697E-06  0.697E-06  0.204E-08  0.697E-06
 20.340  0.161E-05  0.152E-08  0.537E-06  0.537E-06  0.152E-08  0.537E-06
 20.350  0.123E-05  0.112E-08  0.410E-06  0.410E-06  0.112E-08  0.410E-06
 20.360  0.931E-06  0.823E-09  0.310E-06  0.310E-06  0.823E-09  0.310E-06
 20.370  0.697E-06  0.597E-09  0.232E-06  0.232E-06  0.597E-09  0.232E-06
 20.380  0.517E-06  0.429E-09  0.172E-06  0.172E-06  0.429E-09  0.172E-06
 20.390  0.380E-06  0.305E-09  0.126E-06  0.126E-06  0.305E-09  0.126E-06
 20.400  0.276E-06  0.215E-09  0.920E-07  0.920E-07  0.215E-09  0.920E-07
 20.410  0.199E-06  0.150E-09  0.663E-07  0.663E-07  0.150E-09  0.663E-07
 20.420  0.142E-06  0.104E-09  0.474E-07  0.474E-07  0.104E-09  0.474E-07
 20.430  0.101E-06  0.712E-10  0.335E-07  0.335E-07  0.712E-10  0.335E-07
 20.440  0.705E-07  0.483E-10  0.235E-07  0.235E-07  0.483E-10  0.235E-07
 20.450  0.489E-07  0.324E-10  0.163E-07  0.163E-07  0.324E-10  0.163E-07
 20.460  0.336E-07  0.215E-10  0.112E-07  0.112E-07  0.215E-10  0.112E-07
 20.470  0.228E-07  0.142E-10  0.761E-08  0.761E-08  0.142E-10  0.761E-08
 20.480  0.154E-07  0.923E-11  0.513E-08  0.513E-08  0.923E-11  0.513E-08
 20.490  0.103E-07  0.595E-11  0.342E-08  0.342E-08  0.595E-11  0.342E-08
 20.500  0.679E-08  0.379E-11  0.226E-08  0.226E-08  0.379E-11  0.226E-08
 20.510  0.444E-08  0.240E-11  0.148E-08  0.148E-08  0.240E-11  0.148E-08
 20.520  0.288E-08  0.150E-11  0.958E-09  0.958E-09  0.150E-11  0.958E-09
 20.530  0.185E-08  0.926E-12  0.615E-09  0.615E-09  0.926E-12  0.615E-09
 20.540  0.117E-08  0.566E-12  0.391E-09  0.391E-09  0.566E-12  0.391E-09
 20.550  0.738E-09  0.343E-12  0.246E-09  0.246E-09  0.343E-12  0.246E-09
