# E (eV)   ldos(E)   pdos(E)    pdos(E)    pdos(E)   
 -6.080  0.653E-05  0.218E-05  0.218E-05  0.218E-05
 -6.070  0.105E-04  0.350E-05  0.350E-05  0.350E-05
 -6.060  0.167E-04  0.558E-05  0.558E-05  0.558E-05
 -6.050  0.264E-04  0.879E-05  0.879E-05  0.879E-05
 -6.040  0.412E-04  0.137E-04  0.137E-04  0.137E-04
 -6.030  0.636E-04  0.212E-04  0.212E-04  0.212E-04
 -6.020  0.972E-04  0.324E-04  0.324E-04  0.324E-04
 -6.010  0.147E-03  0.490E-04  0.490E-04  0.490E-04
 -6.000  0.220E-03  0.734E-04  0.734E-04  0.734E-04
 -5.990  0.326E-03  0.109E-03  0.109E-03  0.109E-03
 -5.980  0.479E-03  0.160E-03  0.160E-03  0.160E-03
 -5.970  0.695E-03  0.232E-03  0.232E-03  0.232E-03
 -5.960  0.998E-03  0.333E-03  0.333E-03  0.333E-03
 -5.950  0.142E-02  0.473E-03  0.473E-03  0.473E-03
 -5.940  0.200E-02  0.667E-03  0.667E-03  0.667E-03
 -5.930  0.279E-02  0.929E-03  0.929E-03  0.929E-03
 -5.920  0.384E-02  0.128E-02  0.128E-02  0.128E-02
 -5.910  0.525E-02  0.175E-02  0.175E-02  0.175E-02
 -5.900  0.709E-02  0.236E-02  0.236E-02  0.236E-02
 -5.890  0.949E-02  0.316E-02  0.316E-02  0.316E-02
 -5.880  0.126E-01  0.419E-02  0.419E-02  0.419E-02
 -5.870  0.165E-01  0.549E-02  0.549E-02  0.549E-02
 -5.860  0.214E-01  0.713E-02  0.713E-02  0.713E-02
 -5.850  0.275E-01  0.916E-02  0.916E-02  0.916E-02
 -5.840  0.349E-01  0.116E-01  0.116E-01  0.116E-01
 -5.830  0.440E-01  0.147E-01  0.147E-01  0.147E-01
 -5.820  0.548E-01  0.183E-01  0.183E-01  0.183E-01
 -5.810  0.676E-01  0.225E-01  0.225E-01  0.225E-01
 -5.800  0.826E-01  0.275E-01  0.275E-01  0.275E-01
 -5.790  0.100E+00  0.333E-01  0.333E-01  0.333E-01
 -5.780  0.120E+00  0.399E-01  0.399E-01  0.399E-01
 -5.770  0.142E+00  0.473E-01  0.473E-01  0.473E-01
 -5.760  0.167E+00  0.556E-01  0.556E-01  0.556E-01
 -5.750  0.194E+00  0.646E-01  0.646E-01  0.646E-01
 -5.740  0.223E+00  0.744E-01  0.744E-01  0.744E-01
 -5.730  0.255E+00  0.849E-01  0.849E-01  0.849E-01
 -5.720  0.288E+00  0.958E-01  0.958E-01  0.958E-01
 -5.710  0.322E+00  0.107E+00  0.107E+00  0.107E+00
 -5.700  0.356E+00  0.119E+00  0.119E+00  0.119E+00
 -5.690  0.391E+00  0.130E+00  0.130E+00  0.130E+00
 -5.680  0.425E+00  0.142E+00  0.142E+00  0.142E+00
 -5.670  0.458E+00  0.153E+00  0.153E+00  0.153E+00
 -5.660  0.489E+00  0.163E+00  0.163E+00  0.163E+00
 -5.650  0.517E+00  0.172E+00  0.172E+00  0.172E+00
 -5.640  0.542E+00  0.181E+00  0.181E+00  0.181E+00
 -5.630  0.564E+00  0.188E+00  0.188E+00  0.188E+00
 -5.620  0.581E+00  0.194E+00  0.194E+00  0.194E+00
 -5.610  0.593E+00  0.198E+00  0.198E+00  0.198E+00
 -5.600  0.601E+00  0.200E+00  0.200E+00  0.200E+00
 -5.590  0.603E+00  0.201E+00  0.201E+00  0.201E+00
 -5.580  0.601E+00  0.200E+00  0.200E+00  0.200E+00
 -5.570  0.594E+00  0.198E+00  0.198E+00  0.198E+00
 -5.560  0.583E+00  0.194E+00  0.194E+00  0.194E+00
 -5.550  0.568E+00  0.189E+00  0.189E+00  0.189E+00
 -5.540  0.549E+00  0.183E+00  0.183E+00  0.183E+00
 -5.530  0.528E+00  0.176E+00  0.176E+00  0.176E+00
 -5.520  0.504E+00  0.168E+00  0.168E+00  0.168E+00
 -5.510  0.477E+00  0.159E+00  0.159E+00  0.159E+00
 -5.500  0.450E+00  0.150E+00  0.150E+00  0.150E+00
 -5.490  0.422E+00  0.141E+00  0.141E+00  0.141E+00
 -5.480  0.393E+00  0.131E+00  0.131E+00  0.131E+00
 -5.470  0.365E+00  0.122E+00  0.122E+00  0.122E+00
 -5.460  0.336E+00  0.112E+00  0.112E+00  0.112E+00
 -5.450  0.309E+00  0.103E+00  0.103E+00  0.103E+00
 -5.440  0.283E+00  0.942E-01  0.942E-01  0.942E-01
 -5.430  0.257E+00  0.858E-01  0.858E-01  0.858E-01
 -5.420  0.233E+00  0.778E-01  0.778E-01  0.778E-01
 -5.410  0.211E+00  0.703E-01  0.703E-01  0.703E-01
 -5.400  0.190E+00  0.632E-01  0.632E-01  0.632E-01
 -5.390  0.170E+00  0.567E-01  0.567E-01  0.567E-01
 -5.380  0.152E+00  0.506E-01  0.506E-01  0.506E-01
 -5.370  0.135E+00  0.450E-01  0.450E-01  0.450E-01
 -5.360  0.120E+00  0.399E-01  0.399E-01  0.399E-01
 -5.350  0.106E+00  0.352E-01  0.352E-01  0.352E-01
 -5.340  0.929E-01  0.310E-01  0.310E-01  0.310E-01
 -5.330  0.812E-01  0.271E-01  0.271E-01  0.271E-01
 -5.320  0.707E-01  0.236E-01  0.236E-01  0.236E-01
 -5.310  0.613E-01  0.204E-01  0.204E-01  0.204E-01
 -5.300  0.528E-01  0.176E-01  0.176E-01  0.176E-01
 -5.290  0.453E-01  0.151E-01  0.151E-01  0.151E-01
 -5.280  0.386E-01  0.129E-01  0.129E-01  0.129E-01
 -5.270  0.327E-01  0.109E-01  0.109E-01  0.109E-01
 -5.260  0.276E-01  0.919E-02  0.919E-02  0.919E-02
 -5.250  0.231E-01  0.769E-02  0.769E-02  0.769E-02
 -5.240  0.192E-01  0.639E-02  0.639E-02  0.639E-02
 -5.230  0.158E-01  0.528E-02  0.528E-02  0.528E-02
 -5.220  0.130E-01  0.433E-02  0.433E-02  0.433E-02
 -5.210  0.106E-01  0.352E-02  0.352E-02  0.352E-02
 -5.200  0.854E-02  0.285E-02  0.285E-02  0.285E-02
 -5.190  0.685E-02  0.228E-02  0.228E-02  0.228E-02
 -5.180  0.545E-02  0.182E-02  0.182E-02  0.182E-02
 -5.170  0.430E-02  0.143E-02  0.143E-02  0.143E-02
 -5.160  0.337E-02  0.112E-02  0.112E-02  0.112E-02
 -5.150  0.262E-02  0.873E-03  0.873E-03  0.873E-03
 -5.140  0.202E-02  0.672E-03  0.672E-03  0.672E-03
 -5.130  0.154E-02  0.514E-03  0.514E-03  0.514E-03
 -5.120  0.117E-02  0.389E-03  0.389E-03  0.389E-03
 -5.110  0.876E-03  0.292E-03  0.292E-03  0.292E-03
 -5.100  0.652E-03  0.217E-03  0.217E-03  0.217E-03
 -5.090  0.481E-03  0.160E-03  0.160E-03  0.160E-03
 -5.080  0.352E-03  0.117E-03  0.117E-03  0.117E-03
 -5.070  0.255E-03  0.850E-04  0.850E-04  0.850E-04
 -5.060  0.183E-03  0.610E-04  0.610E-04  0.610E-04
 -5.050  0.130E-03  0.434E-04  0.434E-04  0.434E-04
 -5.040  0.919E-04  0.306E-04  0.306E-04  0.306E-04
 -5.030  0.642E-04  0.214E-04  0.214E-04  0.214E-04
 -5.020  0.444E-04  0.148E-04  0.148E-04  0.148E-04
 -5.010  0.304E-04  0.101E-04  0.101E-04  0.101E-04
 -5.000  0.207E-04  0.689E-05  0.689E-05  0.689E-05
 -4.990  0.139E-04  0.464E-05  0.464E-05  0.464E-05
 -4.980  0.927E-05  0.309E-05  0.309E-05  0.309E-05
 -4.970  0.611E-05  0.204E-05  0.204E-05  0.204E-05
 -4.960  0.400E-05  0.133E-05  0.133E-05  0.133E-05
 -4.950  0.259E-05  0.862E-06  0.862E-06  0.862E-06
 -4.940  0.166E-05  0.553E-06  0.553E-06  0.553E-06
 -4.930  0.105E-05  0.351E-06  0.351E-06  0.351E-06
 -4.920  0.661E-06  0.220E-06  0.220E-06  0.220E-06
 -4.910  0.412E-06  0.137E-06  0.137E-06  0.137E-06
 -4.900  0.254E-06  0.846E-07  0.846E-07  0.846E-07
 -4.890  0.155E-06  0.516E-07  0.516E-07  0.516E-07
 -4.880  0.936E-07  0.312E-07  0.312E-07  0.312E-07
 -4.870  0.561E-07  0.187E-07  0.187E-07  0.187E-07
 -4.860  0.333E-07  0.111E-07  0.111E-07  0.111E-07
 -4.850  0.198E-07  0.660E-08  0.660E-08  0.660E-08
 -4.840  0.119E-07  0.397E-08  0.397E-08  0.397E-08
 -4.830  0.761E-08  0.254E-08  0.254E-08  0.254E-08
 -4.820  0.565E-08  0.188E-08  0.188E-08  0.188E-08
 -4.810  0.544E-08  0.181E-08  0.181E-08  0.181E-08
 -4.800  0.688E-08  0.229E-08  0.229E-08  0.229E-08
 -4.790  0.103E-07  0.343E-08  0.343E-08  0.343E-08
 -4.780  0.165E-07  0.549E-08  0.549E-08  0.549E-08
 -4.770  0.269E-07  0.897E-08  0.897E-08  0.897E-08
 -4.760  0.440E-07  0.147E-07  0.147E-07  0.147E-07
 -4.750  0.715E-07  0.238E-07  0.238E-07  0.238E-07
 -4.740  0.115E-06  0.384E-07  0.384E-07  0.384E-07
 -4.730  0.184E-06  0.615E-07  0.615E-07  0.615E-07
 -4.720  0.292E-06  0.975E-07  0.975E-07  0.975E-07
 -4.710  0.460E-06  0.153E-06  0.153E-06  0.153E-06
 -4.700  0.716E-06  0.239E-06  0.239E-06  0.239E-06
 -4.690  0.111E-05  0.368E-06  0.368E-06  0.368E-06
 -4.680  0.169E-05  0.564E-06  0.564E-06  0.564E-06
 -4.670  0.257E-05  0.855E-06  0.855E-06  0.855E-06
 -4.660  0.386E-05  0.129E-05  0.129E-05  0.129E-05
 -4.650  0.575E-05  0.192E-05  0.192E-05  0.192E-05
 -4.640  0.849E-05  0.283E-05  0.283E-05  0.283E-05
 -4.630  0.124E-04  0.414E-05  0.414E-05  0.414E-05
 -4.620  0.180E-04  0.600E-05  0.600E-05  0.600E-05
 -4.610  0.259E-04  0.863E-05  0.863E-05  0.863E-05
 -4.600  0.369E-04  0.123E-04  0.123E-04  0.123E-04
 -4.590  0.520E-04  0.173E-04  0.173E-04  0.173E-04
 -4.580  0.727E-04  0.242E-04  0.242E-04  0.242E-04
 -4.570  0.101E-03  0.336E-04  0.336E-04  0.336E-04
 -4.560  0.138E-03  0.461E-04  0.461E-04  0.461E-04
 -4.550  0.188E-03  0.627E-04  0.627E-04  0.627E-04
 -4.540  0.253E-03  0.845E-04  0.845E-04  0.845E-04
 -4.530  0.338E-03  0.113E-03  0.113E-03  0.113E-03
 -4.520  0.447E-03  0.149E-03  0.149E-03  0.149E-03
 -4.510  0.586E-03  0.195E-03  0.195E-03  0.195E-03
 -4.500  0.762E-03  0.254E-03  0.254E-03  0.254E-03
 -4.490  0.980E-03  0.327E-03  0.327E-03  0.327E-03
 -4.480  0.125E-02  0.416E-03  0.416E-03  0.416E-03
 -4.470  0.158E-02  0.526E-03  0.526E-03  0.526E-03
 -4.460  0.197E-02  0.658E-03  0.658E-03  0.658E-03
 -4.450  0.245E-02  0.816E-03  0.816E-03  0.816E-03
 -4.440  0.301E-02  0.100E-02  0.100E-02  0.100E-02
 -4.430  0.366E-02  0.122E-02  0.122E-02  0.122E-02
 -4.420  0.442E-02  0.147E-02  0.147E-02  0.147E-02
 -4.410  0.529E-02  0.176E-02  0.176E-02  0.176E-02
 -4.400  0.627E-02  0.209E-02  0.209E-02  0.209E-02
 -4.390  0.737E-02  0.246E-02  0.246E-02  0.246E-02
 -4.380  0.858E-02  0.286E-02  0.286E-02  0.286E-02
 -4.370  0.992E-02  0.331E-02  0.331E-02  0.331E-02
 -4.360  0.114E-01  0.379E-02  0.379E-02  0.379E-02
 -4.350  0.129E-01  0.430E-02  0.430E-02  0.430E-02
 -4.340  0.145E-01  0.485E-02  0.485E-02  0.485E-02
 -4.330  0.163E-01  0.542E-02  0.542E-02  0.542E-02
 -4.320  0.180E-01  0.601E-02  0.601E-02  0.601E-02
 -4.310  0.198E-01  0.662E-02  0.662E-02  0.662E-02
 -4.300  0.217E-01  0.723E-02  0.723E-02  0.723E-02
 -4.290  0.235E-01  0.785E-02  0.785E-02  0.785E-02
 -4.280  0.254E-01  0.845E-02  0.845E-02  0.845E-02
 -4.270  0.272E-01  0.905E-02  0.905E-02  0.905E-02
 -4.260  0.289E-01  0.963E-02  0.963E-02  0.963E-02
 -4.250  0.306E-01  0.102E-01  0.102E-01  0.102E-01
 -4.240  0.321E-01  0.107E-01  0.107E-01  0.107E-01
 -4.230  0.336E-01  0.112E-01  0.112E-01  0.112E-01
 -4.220  0.349E-01  0.116E-01  0.116E-01  0.116E-01
 -4.210  0.362E-01  0.121E-01  0.121E-01  0.121E-01
 -4.200  0.373E-01  0.124E-01  0.124E-01  0.124E-01
 -4.190  0.382E-01  0.127E-01  0.127E-01  0.127E-01
 -4.180  0.391E-01  0.130E-01  0.130E-01  0.130E-01
 -4.170  0.398E-01  0.133E-01  0.133E-01  0.133E-01
 -4.160  0.403E-01  0.134E-01  0.134E-01  0.134E-01
 -4.150  0.407E-01  0.136E-01  0.136E-01  0.136E-01
 -4.140  0.409E-01  0.136E-01  0.136E-01  0.136E-01
 -4.130  0.410E-01  0.137E-01  0.137E-01  0.137E-01
 -4.120  0.410E-01  0.137E-01  0.137E-01  0.137E-01
 -4.110  0.408E-01  0.136E-01  0.136E-01  0.136E-01
 -4.100  0.405E-01  0.135E-01  0.135E-01  0.135E-01
 -4.090  0.400E-01  0.133E-01  0.133E-01  0.133E-01
 -4.080  0.394E-01  0.131E-01  0.131E-01  0.131E-01
 -4.070  0.387E-01  0.129E-01  0.129E-01  0.129E-01
 -4.060  0.378E-01  0.126E-01  0.126E-01  0.126E-01
 -4.050  0.368E-01  0.123E-01  0.123E-01  0.123E-01
 -4.040  0.358E-01  0.119E-01  0.119E-01  0.119E-01
 -4.030  0.347E-01  0.116E-01  0.116E-01  0.116E-01
 -4.020  0.335E-01  0.112E-01  0.112E-01  0.112E-01
 -4.010  0.323E-01  0.108E-01  0.108E-01  0.108E-01
 -4.000  0.310E-01  0.103E-01  0.103E-01  0.103E-01
 -3.990  0.298E-01  0.993E-02  0.993E-02  0.993E-02
 -3.980  0.286E-01  0.953E-02  0.953E-02  0.953E-02
 -3.970  0.274E-01  0.914E-02  0.914E-02  0.914E-02
 -3.960  0.263E-01  0.878E-02  0.878E-02  0.878E-02
 -3.950  0.253E-01  0.844E-02  0.844E-02  0.844E-02
 -3.940  0.244E-01  0.813E-02  0.813E-02  0.813E-02
 -3.930  0.236E-01  0.786E-02  0.786E-02  0.786E-02
 -3.920  0.228E-01  0.762E-02  0.762E-02  0.762E-02
 -3.910  0.222E-01  0.741E-02  0.741E-02  0.741E-02
 -3.900  0.218E-01  0.725E-02  0.725E-02  0.725E-02
 -3.890  0.214E-01  0.712E-02  0.712E-02  0.712E-02
 -3.880  0.211E-01  0.703E-02  0.703E-02  0.703E-02
 -3.870  0.209E-01  0.698E-02  0.698E-02  0.698E-02
 -3.860  0.209E-01  0.695E-02  0.695E-02  0.695E-02
 -3.850  0.209E-01  0.696E-02  0.696E-02  0.696E-02
 -3.840  0.210E-01  0.699E-02  0.699E-02  0.699E-02
 -3.830  0.212E-01  0.705E-02  0.705E-02  0.705E-02
 -3.820  0.214E-01  0.714E-02  0.714E-02  0.714E-02
 -3.810  0.217E-01  0.725E-02  0.725E-02  0.725E-02
 -3.800  0.221E-01  0.738E-02  0.738E-02  0.738E-02
 -3.790  0.226E-01  0.752E-02  0.752E-02  0.752E-02
 -3.780  0.231E-01  0.769E-02  0.769E-02  0.769E-02
 -3.770  0.236E-01  0.786E-02  0.786E-02  0.786E-02
 -3.760  0.242E-01  0.806E-02  0.806E-02  0.806E-02
 -3.750  0.248E-01  0.826E-02  0.826E-02  0.826E-02
 -3.740  0.254E-01  0.847E-02  0.847E-02  0.847E-02
 -3.730  0.261E-01  0.869E-02  0.869E-02  0.869E-02
 -3.720  0.267E-01  0.891E-02  0.891E-02  0.891E-02
 -3.710  0.274E-01  0.914E-02  0.914E-02  0.914E-02
 -3.700  0.281E-01  0.937E-02  0.937E-02  0.937E-02
 -3.690  0.288E-01  0.959E-02  0.959E-02  0.959E-02
 -3.680  0.294E-01  0.981E-02  0.981E-02  0.981E-02
 -3.670  0.301E-01  0.100E-01  0.100E-01  0.100E-01
 -3.660  0.307E-01  0.102E-01  0.102E-01  0.102E-01
 -3.650  0.314E-01  0.105E-01  0.105E-01  0.105E-01
 -3.640  0.320E-01  0.107E-01  0.107E-01  0.107E-01
 -3.630  0.326E-01  0.109E-01  0.109E-01  0.109E-01
 -3.620  0.332E-01  0.111E-01  0.111E-01  0.111E-01
 -3.610  0.338E-01  0.113E-01  0.113E-01  0.113E-01
 -3.600  0.344E-01  0.115E-01  0.115E-01  0.115E-01
 -3.590  0.350E-01  0.117E-01  0.117E-01  0.117E-01
 -3.580  0.357E-01  0.119E-01  0.119E-01  0.119E-01
 -3.570  0.363E-01  0.121E-01  0.121E-01  0.121E-01
 -3.560  0.370E-01  0.123E-01  0.123E-01  0.123E-01
 -3.550  0.377E-01  0.126E-01  0.126E-01  0.126E-01
 -3.540  0.385E-01  0.128E-01  0.128E-01  0.128E-01
 -3.530  0.392E-01  0.131E-01  0.131E-01  0.131E-01
 -3.520  0.400E-01  0.133E-01  0.133E-01  0.133E-01
 -3.510  0.408E-01  0.136E-01  0.136E-01  0.136E-01
 -3.500  0.417E-01  0.139E-01  0.139E-01  0.139E-01
 -3.490  0.425E-01  0.142E-01  0.142E-01  0.142E-01
 -3.480  0.433E-01  0.144E-01  0.144E-01  0.144E-01
 -3.470  0.441E-01  0.147E-01  0.147E-01  0.147E-01
 -3.460  0.449E-01  0.150E-01  0.150E-01  0.150E-01
 -3.450  0.457E-01  0.152E-01  0.152E-01  0.152E-01
 -3.440  0.464E-01  0.155E-01  0.155E-01  0.155E-01
 -3.430  0.471E-01  0.157E-01  0.157E-01  0.157E-01
 -3.420  0.478E-01  0.159E-01  0.159E-01  0.159E-01
 -3.410  0.484E-01  0.161E-01  0.161E-01  0.161E-01
 -3.400  0.490E-01  0.163E-01  0.163E-01  0.163E-01
 -3.390  0.496E-01  0.165E-01  0.165E-01  0.165E-01
 -3.380  0.502E-01  0.167E-01  0.167E-01  0.167E-01
 -3.370  0.508E-01  0.169E-01  0.169E-01  0.169E-01
 -3.360  0.514E-01  0.171E-01  0.171E-01  0.171E-01
 -3.350  0.520E-01  0.173E-01  0.173E-01  0.173E-01
 -3.340  0.527E-01  0.176E-01  0.176E-01  0.176E-01
 -3.330  0.534E-01  0.178E-01  0.178E-01  0.178E-01
 -3.320  0.541E-01  0.180E-01  0.180E-01  0.180E-01
 -3.310  0.549E-01  0.183E-01  0.183E-01  0.183E-01
 -3.300  0.557E-01  0.186E-01  0.186E-01  0.186E-01
 -3.290  0.566E-01  0.189E-01  0.189E-01  0.189E-01
 -3.280  0.575E-01  0.192E-01  0.192E-01  0.192E-01
 -3.270  0.585E-01  0.195E-01  0.195E-01  0.195E-01
 -3.260  0.594E-01  0.198E-01  0.198E-01  0.198E-01
 -3.250  0.604E-01  0.201E-01  0.201E-01  0.201E-01
 -3.240  0.614E-01  0.205E-01  0.205E-01  0.205E-01
 -3.230  0.623E-01  0.208E-01  0.208E-01  0.208E-01
 -3.220  0.633E-01  0.211E-01  0.211E-01  0.211E-01
 -3.210  0.641E-01  0.214E-01  0.214E-01  0.214E-01
 -3.200  0.650E-01  0.217E-01  0.217E-01  0.217E-01
 -3.190  0.658E-01  0.219E-01  0.219E-01  0.219E-01
 -3.180  0.665E-01  0.222E-01  0.222E-01  0.222E-01
 -3.170  0.672E-01  0.224E-01  0.224E-01  0.224E-01
 -3.160  0.679E-01  0.226E-01  0.226E-01  0.226E-01
 -3.150  0.685E-01  0.228E-01  0.228E-01  0.228E-01
 -3.140  0.691E-01  0.230E-01  0.230E-01  0.230E-01
 -3.130  0.697E-01  0.232E-01  0.232E-01  0.232E-01
 -3.120  0.703E-01  0.234E-01  0.234E-01  0.234E-01
 -3.110  0.709E-01  0.236E-01  0.236E-01  0.236E-01
 -3.100  0.716E-01  0.239E-01  0.239E-01  0.239E-01
 -3.090  0.723E-01  0.241E-01  0.241E-01  0.241E-01
 -3.080  0.731E-01  0.244E-01  0.244E-01  0.244E-01
 -3.070  0.739E-01  0.246E-01  0.246E-01  0.246E-01
 -3.060  0.748E-01  0.249E-01  0.249E-01  0.249E-01
 -3.050  0.758E-01  0.253E-01  0.253E-01  0.253E-01
 -3.040  0.768E-01  0.256E-01  0.256E-01  0.256E-01
 -3.030  0.779E-01  0.260E-01  0.260E-01  0.260E-01
 -3.020  0.790E-01  0.263E-01  0.263E-01  0.263E-01
 -3.010  0.802E-01  0.267E-01  0.267E-01  0.267E-01
 -3.000  0.813E-01  0.271E-01  0.271E-01  0.271E-01
 -2.990  0.825E-01  0.275E-01  0.275E-01  0.275E-01
 -2.980  0.836E-01  0.279E-01  0.279E-01  0.279E-01
 -2.970  0.848E-01  0.283E-01  0.283E-01  0.283E-01
 -2.960  0.858E-01  0.286E-01  0.286E-01  0.286E-01
 -2.950  0.868E-01  0.289E-01  0.289E-01  0.289E-01
 -2.940  0.878E-01  0.293E-01  0.293E-01  0.293E-01
 -2.930  0.887E-01  0.296E-01  0.296E-01  0.296E-01
 -2.920  0.895E-01  0.298E-01  0.298E-01  0.298E-01
 -2.910  0.903E-01  0.301E-01  0.301E-01  0.301E-01
 -2.900  0.911E-01  0.304E-01  0.304E-01  0.304E-01
 -2.890  0.919E-01  0.306E-01  0.306E-01  0.306E-01
 -2.880  0.926E-01  0.309E-01  0.309E-01  0.309E-01
 -2.870  0.934E-01  0.311E-01  0.311E-01  0.311E-01
 -2.860  0.942E-01  0.314E-01  0.314E-01  0.314E-01
 -2.850  0.950E-01  0.317E-01  0.317E-01  0.317E-01
 -2.840  0.959E-01  0.320E-01  0.320E-01  0.320E-01
 -2.830  0.969E-01  0.323E-01  0.323E-01  0.323E-01
 -2.820  0.980E-01  0.327E-01  0.327E-01  0.327E-01
 -2.810  0.991E-01  0.330E-01  0.330E-01  0.330E-01
 -2.800  0.100E+00  0.335E-01  0.335E-01  0.335E-01
 -2.790  0.102E+00  0.339E-01  0.339E-01  0.339E-01
 -2.780  0.103E+00  0.344E-01  0.344E-01  0.344E-01
 -2.770  0.105E+00  0.348E-01  0.348E-01  0.348E-01
 -2.760  0.106E+00  0.353E-01  0.353E-01  0.353E-01
 -2.750  0.108E+00  0.358E-01  0.358E-01  0.358E-01
 -2.740  0.109E+00  0.363E-01  0.363E-01  0.363E-01
 -2.730  0.111E+00  0.369E-01  0.369E-01  0.369E-01
 -2.720  0.112E+00  0.374E-01  0.374E-01  0.374E-01
 -2.710  0.114E+00  0.378E-01  0.378E-01  0.378E-01
 -2.700  0.115E+00  0.383E-01  0.383E-01  0.383E-01
 -2.690  0.116E+00  0.388E-01  0.388E-01  0.388E-01
 -2.680  0.118E+00  0.392E-01  0.392E-01  0.392E-01
 -2.670  0.119E+00  0.397E-01  0.397E-01  0.397E-01
 -2.660  0.120E+00  0.401E-01  0.401E-01  0.401E-01
 -2.650  0.122E+00  0.406E-01  0.406E-01  0.406E-01
 -2.640  0.123E+00  0.410E-01  0.410E-01  0.410E-01
 -2.630  0.124E+00  0.415E-01  0.415E-01  0.415E-01
 -2.620  0.126E+00  0.420E-01  0.420E-01  0.420E-01
 -2.610  0.127E+00  0.425E-01  0.425E-01  0.425E-01
 -2.600  0.129E+00  0.430E-01  0.430E-01  0.430E-01
 -2.590  0.131E+00  0.436E-01  0.436E-01  0.436E-01
 -2.580  0.133E+00  0.442E-01  0.442E-01  0.442E-01
 -2.570  0.135E+00  0.449E-01  0.449E-01  0.449E-01
 -2.560  0.137E+00  0.456E-01  0.456E-01  0.456E-01
 -2.550  0.139E+00  0.464E-01  0.464E-01  0.464E-01
 -2.540  0.142E+00  0.472E-01  0.472E-01  0.472E-01
 -2.530  0.144E+00  0.481E-01  0.481E-01  0.481E-01
 -2.520  0.147E+00  0.490E-01  0.490E-01  0.490E-01
 -2.510  0.150E+00  0.499E-01  0.499E-01  0.499E-01
 -2.500  0.153E+00  0.508E-01  0.508E-01  0.508E-01
 -2.490  0.155E+00  0.518E-01  0.518E-01  0.518E-01
 -2.480  0.158E+00  0.528E-01  0.528E-01  0.528E-01
 -2.470  0.161E+00  0.537E-01  0.537E-01  0.537E-01
 -2.460  0.164E+00  0.547E-01  0.547E-01  0.547E-01
 -2.450  0.167E+00  0.557E-01  0.557E-01  0.557E-01
 -2.440  0.170E+00  0.567E-01  0.567E-01  0.567E-01
 -2.430  0.173E+00  0.576E-01  0.576E-01  0.576E-01
 -2.420  0.176E+00  0.586E-01  0.586E-01  0.586E-01
 -2.410  0.179E+00  0.596E-01  0.596E-01  0.596E-01
 -2.400  0.182E+00  0.605E-01  0.605E-01  0.605E-01
 -2.390  0.184E+00  0.615E-01  0.615E-01  0.615E-01
 -2.380  0.187E+00  0.624E-01  0.624E-01  0.624E-01
 -2.370  0.190E+00  0.634E-01  0.634E-01  0.634E-01
 -2.360  0.193E+00  0.643E-01  0.643E-01  0.643E-01
 -2.350  0.196E+00  0.652E-01  0.652E-01  0.652E-01
 -2.340  0.198E+00  0.662E-01  0.662E-01  0.662E-01
 -2.330  0.201E+00  0.671E-01  0.671E-01  0.671E-01
 -2.320  0.204E+00  0.679E-01  0.679E-01  0.679E-01
 -2.310  0.206E+00  0.688E-01  0.688E-01  0.688E-01
 -2.300  0.209E+00  0.696E-01  0.696E-01  0.696E-01
 -2.290  0.211E+00  0.704E-01  0.704E-01  0.704E-01
 -2.280  0.214E+00  0.712E-01  0.712E-01  0.712E-01
 -2.270  0.216E+00  0.719E-01  0.719E-01  0.719E-01
 -2.260  0.218E+00  0.726E-01  0.726E-01  0.726E-01
 -2.250  0.220E+00  0.733E-01  0.733E-01  0.733E-01
 -2.240  0.222E+00  0.740E-01  0.740E-01  0.740E-01
 -2.230  0.224E+00  0.747E-01  0.747E-01  0.747E-01
 -2.220  0.226E+00  0.753E-01  0.753E-01  0.753E-01
 -2.210  0.228E+00  0.760E-01  0.760E-01  0.760E-01
 -2.200  0.230E+00  0.767E-01  0.767E-01  0.767E-01
 -2.190  0.232E+00  0.774E-01  0.774E-01  0.774E-01
 -2.180  0.234E+00  0.781E-01  0.781E-01  0.781E-01
 -2.170  0.237E+00  0.788E-01  0.788E-01  0.788E-01
 -2.160  0.239E+00  0.796E-01  0.796E-01  0.796E-01
 -2.150  0.241E+00  0.804E-01  0.804E-01  0.804E-01
 -2.140  0.244E+00  0.813E-01  0.813E-01  0.813E-01
 -2.130  0.246E+00  0.821E-01  0.821E-01  0.821E-01
 -2.120  0.249E+00  0.830E-01  0.830E-01  0.830E-01
 -2.110  0.252E+00  0.839E-01  0.839E-01  0.839E-01
 -2.100  0.255E+00  0.848E-01  0.848E-01  0.848E-01
 -2.090  0.257E+00  0.858E-01  0.858E-01  0.858E-01
 -2.080  0.260E+00  0.866E-01  0.866E-01  0.866E-01
 -2.070  0.263E+00  0.875E-01  0.875E-01  0.875E-01
 -2.060  0.265E+00  0.883E-01  0.883E-01  0.883E-01
 -2.050  0.267E+00  0.891E-01  0.891E-01  0.891E-01
 -2.040  0.269E+00  0.898E-01  0.898E-01  0.898E-01
 -2.030  0.271E+00  0.903E-01  0.903E-01  0.903E-01
 -2.020  0.272E+00  0.907E-01  0.907E-01  0.907E-01
 -2.010  0.273E+00  0.910E-01  0.910E-01  0.910E-01
 -2.000  0.273E+00  0.911E-01  0.911E-01  0.911E-01
 -1.990  0.273E+00  0.910E-01  0.910E-01  0.910E-01
 -1.980  0.272E+00  0.907E-01  0.907E-01  0.907E-01
 -1.970  0.270E+00  0.901E-01  0.901E-01  0.901E-01
 -1.960  0.268E+00  0.893E-01  0.893E-01  0.893E-01
 -1.950  0.264E+00  0.882E-01  0.882E-01  0.882E-01
 -1.940  0.260E+00  0.867E-01  0.867E-01  0.867E-01
 -1.930  0.255E+00  0.850E-01  0.850E-01  0.850E-01
 -1.920  0.249E+00  0.830E-01  0.830E-01  0.830E-01
 -1.910  0.242E+00  0.807E-01  0.807E-01  0.807E-01
 -1.900  0.234E+00  0.781E-01  0.781E-01  0.781E-01
 -1.890  0.226E+00  0.752E-01  0.752E-01  0.752E-01
 -1.880  0.216E+00  0.721E-01  0.721E-01  0.721E-01
 -1.870  0.206E+00  0.687E-01  0.687E-01  0.687E-01
 -1.860  0.196E+00  0.652E-01  0.652E-01  0.652E-01
 -1.850  0.184E+00  0.615E-01  0.615E-01  0.615E-01
 -1.840  0.173E+00  0.576E-01  0.576E-01  0.576E-01
 -1.830  0.161E+00  0.537E-01  0.537E-01  0.537E-01
 -1.820  0.149E+00  0.497E-01  0.497E-01  0.497E-01
 -1.810  0.137E+00  0.457E-01  0.457E-01  0.457E-01
 -1.800  0.125E+00  0.418E-01  0.418E-01  0.418E-01
 -1.790  0.114E+00  0.379E-01  0.379E-01  0.379E-01
 -1.780  0.103E+00  0.342E-01  0.342E-01  0.342E-01
 -1.770  0.919E-01  0.306E-01  0.306E-01  0.306E-01
 -1.760  0.816E-01  0.272E-01  0.272E-01  0.272E-01
 -1.750  0.720E-01  0.240E-01  0.240E-01  0.240E-01
 -1.740  0.631E-01  0.210E-01  0.210E-01  0.210E-01
 -1.730  0.549E-01  0.183E-01  0.183E-01  0.183E-01
 -1.720  0.473E-01  0.158E-01  0.158E-01  0.158E-01
 -1.710  0.405E-01  0.135E-01  0.135E-01  0.135E-01
 -1.700  0.344E-01  0.115E-01  0.115E-01  0.115E-01
 -1.690  0.290E-01  0.966E-02  0.966E-02  0.966E-02
 -1.680  0.242E-01  0.807E-02  0.807E-02  0.807E-02
 -1.670  0.201E-01  0.669E-02  0.669E-02  0.669E-02
 -1.660  0.165E-01  0.550E-02  0.550E-02  0.550E-02
 -1.650  0.134E-01  0.448E-02  0.448E-02  0.448E-02
 -1.640  0.109E-01  0.362E-02  0.362E-02  0.362E-02
 -1.630  0.871E-02  0.290E-02  0.290E-02  0.290E-02
 -1.620  0.692E-02  0.231E-02  0.231E-02  0.231E-02
 -1.610  0.545E-02  0.182E-02  0.182E-02  0.182E-02
 -1.600  0.425E-02  0.142E-02  0.142E-02  0.142E-02
 -1.590  0.329E-02  0.110E-02  0.110E-02  0.110E-02
 -1.580  0.252E-02  0.841E-03  0.841E-03  0.841E-03
 -1.570  0.192E-02  0.639E-03  0.639E-03  0.639E-03
 -1.560  0.144E-02  0.481E-03  0.481E-03  0.481E-03
 -1.550  0.108E-02  0.359E-03  0.359E-03  0.359E-03
 -1.540  0.797E-03  0.266E-03  0.266E-03  0.266E-03
 -1.530  0.584E-03  0.195E-03  0.195E-03  0.195E-03
 -1.520  0.424E-03  0.141E-03  0.141E-03  0.141E-03
 -1.510  0.305E-03  0.102E-03  0.102E-03  0.102E-03
 -1.500  0.217E-03  0.724E-04  0.724E-04  0.724E-04
 -1.490  0.153E-03  0.511E-04  0.511E-04  0.511E-04
 -1.480  0.107E-03  0.357E-04  0.357E-04  0.357E-04
 -1.470  0.741E-04  0.247E-04  0.247E-04  0.247E-04
 -1.460  0.508E-04  0.169E-04  0.169E-04  0.169E-04
 -1.450  0.345E-04  0.115E-04  0.115E-04  0.115E-04
 -1.440  0.232E-04  0.773E-05  0.773E-05  0.773E-05
 -1.430  0.155E-04  0.515E-05  0.515E-05  0.515E-05
 -1.420  0.102E-04  0.340E-05  0.340E-05  0.340E-05
 -1.410  0.665E-05  0.222E-05  0.222E-05  0.222E-05
 -1.400  0.430E-05  0.143E-05  0.143E-05  0.143E-05
 -1.390  0.275E-05  0.918E-06  0.918E-06  0.918E-06
 -1.380  0.175E-05  0.582E-06  0.582E-06  0.582E-06
 -1.370  0.110E-05  0.365E-06  0.365E-06  0.365E-06
 -1.360  0.681E-06  0.227E-06  0.227E-06  0.227E-06
 -1.350  0.419E-06  0.140E-06  0.140E-06  0.140E-06
 -1.340  0.255E-06  0.851E-07  0.851E-07  0.851E-07
 -1.330  0.154E-06  0.513E-07  0.513E-07  0.513E-07
 -1.320  0.919E-07  0.306E-07  0.306E-07  0.306E-07
 -1.310  0.543E-07  0.181E-07  0.181E-07  0.181E-07
 -1.300  0.317E-07  0.106E-07  0.106E-07  0.106E-07
 -1.290  0.184E-07  0.613E-08  0.613E-08  0.613E-08
 -1.280  0.105E-07  0.351E-08  0.351E-08  0.351E-08
 -1.270  0.598E-08  0.199E-08  0.199E-08  0.199E-08
 -1.260  0.336E-08  0.112E-08  0.112E-08  0.112E-08
 -1.250  0.187E-08  0.622E-09  0.622E-09  0.622E-09
 -1.240  0.103E-08  0.342E-09  0.342E-09  0.342E-09
 -1.230  0.559E-09  0.186E-09  0.186E-09  0.186E-09
 -1.220  0.301E-09  0.100E-09  0.100E-09  0.100E-09
 -1.210  0.161E-09  0.535E-10  0.535E-10  0.535E-10
 -1.200  0.847E-10  0.282E-10  0.282E-10  0.282E-10
 -1.190  0.442E-10  0.147E-10  0.147E-10  0.147E-10
 -1.180  0.228E-10  0.760E-11  0.760E-11  0.760E-11
 -1.170  0.117E-10  0.388E-11  0.388E-11  0.388E-11
 -1.160  0.585E-11  0.195E-11  0.195E-11  0.195E-11
 -1.150  0.292E-11  0.972E-12  0.972E-12  0.972E-12
 -1.140  0.143E-11  0.477E-12  0.477E-12  0.477E-12
 -1.130  0.673E-12  0.224E-12  0.224E-12  0.224E-12
 -1.120  0.320E-12  0.107E-12  0.107E-12  0.107E-12
 -1.110  0.143E-12  0.477E-13  0.477E-13  0.477E-13
 -1.100  0.466E-13  0.155E-13  0.155E-13  0.155E-13
 -1.090  0.222E-13  0.740E-14  0.740E-14  0.740E-14
 -1.080  0.000E+00  0.000E+00  0.000E+00  0.000E+00
 -1.070  0.000E+00  0.000E+00  0.000E+00  0.000E+00
 -1.060  0.000E+00  0.000E+00  0.000E+00  0.000E+00
 -1.050  0.000E+00  0.000E+00  0.000E+00  0.000E+00
 -1.040  0.000E+00  0.000E+00  0.000E+00  0.000E+00
 -1.030  0.000E+00  0.000E+00  0.000E+00  0.000E+00
 -1.020  0.000E+00  0.000E+00  0.000E+00  0.000E+00
 -1.010  0.000E+00  0.000E+00  0.000E+00  0.000E+00
 -1.000  0.000E+00  0.000E+00  0.000E+00  0.000E+00
 -0.990  0.000E+00  0.000E+00  0.000E+00  0.000E+00
 -0.980  0.000E+00  0.000E+00  0.000E+00  0.000E+00
 -0.970  0.000E+00  0.000E+00  0.000E+00  0.000E+00
 -0.960  0.000E+00  0.000E+00  0.000E+00  0.000E+00
 -0.950  0.000E+00  0.000E+00  0.000E+00  0.000E+00
 -0.940  0.000E+00  0.000E+00  0.000E+00  0.000E+00
 -0.930  0.000E+00  0.000E+00  0.000E+00  0.000E+00
 -0.920  0.000E+00  0.000E+00  0.000E+00  0.000E+00
 -0.910  0.000E+00  0.000E+00  0.000E+00  0.000E+00
 -0.900  0.000E+00  0.000E+00  0.000E+00  0.000E+00
 -0.890  0.000E+00  0.000E+00  0.000E+00  0.000E+00
 -0.880  0.000E+00  0.000E+00  0.000E+00  0.000E+00
 -0.870  0.000E+00  0.000E+00  0.000E+00  0.000E+00
 -0.860  0.000E+00  0.000E+00  0.000E+00  0.000E+00
 -0.850  0.000E+00  0.000E+00  0.000E+00  0.000E+00
 -0.840  0.000E+00  0.000E+00  0.000E+00  0.000E+00
 -0.830  0.000E+00  0.000E+00  0.000E+00  0.000E+00
 -0.820  0.000E+00  0.000E+00  0.000E+00  0.000E+00
 -0.810  0.000E+00  0.000E+00  0.000E+00  0.000E+00
 -0.800  0.000E+00  0.000E+00  0.000E+00  0.000E+00
 -0.790  0.000E+00  0.000E+00  0.000E+00  0.000E+00
 -0.780  0.000E+00  0.000E+00  0.000E+00  0.000E+00
 -0.770  0.000E+00  0.000E+00  0.000E+00  0.000E+00
 -0.760  0.000E+00  0.000E+00  0.000E+00  0.000E+00
 -0.750  0.000E+00  0.000E+00  0.000E+00  0.000E+00
 -0.740  0.000E+00  0.000E+00  0.000E+00  0.000E+00
 -0.730  0.000E+00  0.000E+00  0.000E+00  0.000E+00
 -0.720  0.000E+00  0.000E+00  0.000E+00  0.000E+00
 -0.710  0.000E+00  0.000E+00  0.000E+00  0.000E+00
 -0.700  0.000E+00  0.000E+00  0.000E+00  0.000E+00
 -0.690  0.000E+00  0.000E+00  0.000E+00  0.000E+00
 -0.680  0.000E+00  0.000E+00  0.000E+00  0.000E+00
 -0.670  0.000E+00  0.000E+00  0.000E+00  0.000E+00
 -0.660  0.000E+00  0.000E+00  0.000E+00  0.000E+00
 -0.650  0.000E+00  0.000E+00  0.000E+00  0.000E+00
 -0.640  0.000E+00  0.000E+00  0.000E+00  0.000E+00
 -0.630  0.000E+00  0.000E+00  0.000E+00  0.000E+00
 -0.620  0.000E+00  0.000E+00  0.000E+00  0.000E+00
 -0.610  0.000E+00  0.000E+00  0.000E+00  0.000E+00
 -0.600  0.000E+00  0.000E+00  0.000E+00  0.000E+00
 -0.590  0.000E+00  0.000E+00  0.000E+00  0.000E+00
 -0.580  0.000E+00  0.000E+00  0.000E+00  0.000E+00
 -0.570  0.000E+00  0.000E+00  0.000E+00  0.000E+00
 -0.560  0.000E+00  0.000E+00  0.000E+00  0.000E+00
 -0.550  0.000E+00  0.000E+00  0.000E+00  0.000E+00
 -0.540  0.000E+00  0.000E+00  0.000E+00  0.000E+00
 -0.530  0.000E+00  0.000E+00  0.000E+00  0.000E+00
 -0.520  0.000E+00  0.000E+00  0.000E+00  0.000E+00
 -0.510  0.000E+00  0.000E+00  0.000E+00  0.000E+00
 -0.500  0.000E+00  0.000E+00  0.000E+00  0.000E+00
 -0.490  0.000E+00  0.000E+00  0.000E+00  0.000E+00
 -0.480  0.000E+00  0.000E+00  0.000E+00  0.000E+00
 -0.470  0.000E+00  0.000E+00  0.000E+00  0.000E+00
 -0.460  0.000E+00  0.000E+00  0.000E+00  0.000E+00
 -0.450  0.000E+00  0.000E+00  0.000E+00  0.000E+00
 -0.440  0.000E+00  0.000E+00  0.000E+00  0.000E+00
 -0.430  0.000E+00  0.000E+00  0.000E+00  0.000E+00
 -0.420  0.000E+00  0.000E+00  0.000E+00  0.000E+00
 -0.410  0.000E+00  0.000E+00  0.000E+00  0.000E+00
 -0.400  0.000E+00  0.000E+00  0.000E+00  0.000E+00
 -0.390  0.000E+00  0.000E+00  0.000E+00  0.000E+00
 -0.380  0.000E+00  0.000E+00  0.000E+00  0.000E+00
 -0.370  0.000E+00  0.000E+00  0.000E+00  0.000E+00
 -0.360  0.000E+00  0.000E+00  0.000E+00  0.000E+00
 -0.350  0.000E+00  0.000E+00  0.000E+00  0.000E+00
 -0.340  0.000E+00  0.000E+00  0.000E+00  0.000E+00
 -0.330  0.000E+00  0.000E+00  0.000E+00  0.000E+00
 -0.320  0.000E+00  0.000E+00  0.000E+00  0.000E+00
 -0.310  0.000E+00  0.000E+00  0.000E+00  0.000E+00
 -0.300  0.000E+00  0.000E+00  0.000E+00  0.000E+00
 -0.290  0.000E+00  0.000E+00  0.000E+00  0.000E+00
 -0.280  0.000E+00  0.000E+00  0.000E+00  0.000E+00
 -0.270  0.000E+00  0.000E+00  0.000E+00  0.000E+00
 -0.260  0.000E+00  0.000E+00  0.000E+00  0.000E+00
 -0.250  0.000E+00  0.000E+00  0.000E+00  0.000E+00
 -0.240  0.000E+00  0.000E+00  0.000E+00  0.000E+00
 -0.230  0.000E+00  0.000E+00  0.000E+00  0.000E+00
 -0.220  0.000E+00  0.000E+00  0.000E+00  0.000E+00
 -0.210  0.000E+00  0.000E+00  0.000E+00  0.000E+00
 -0.200  0.000E+00  0.000E+00  0.000E+00  0.000E+00
 -0.190  0.000E+00  0.000E+00  0.000E+00  0.000E+00
 -0.180  0.000E+00  0.000E+00  0.000E+00  0.000E+00
 -0.170  0.000E+00  0.000E+00  0.000E+00  0.000E+00
 -0.160  0.000E+00  0.000E+00  0.000E+00  0.000E+00
 -0.150  0.000E+00  0.000E+00  0.000E+00  0.000E+00
 -0.140  0.000E+00  0.000E+00  0.000E+00  0.000E+00
 -0.130  0.000E+00  0.000E+00  0.000E+00  0.000E+00
 -0.120  0.000E+00  0.000E+00  0.000E+00  0.000E+00
 -0.110  0.000E+00  0.000E+00  0.000E+00  0.000E+00
 -0.100  0.000E+00  0.000E+00  0.000E+00  0.000E+00
 -0.090  0.000E+00  0.000E+00  0.000E+00  0.000E+00
 -0.080  0.000E+00  0.000E+00  0.000E+00  0.000E+00
 -0.070  0.000E+00  0.000E+00  0.000E+00  0.000E+00
 -0.060  0.000E+00  0.000E+00  0.000E+00  0.000E+00
 -0.050  0.000E+00  0.000E+00  0.000E+00  0.000E+00
 -0.040  0.000E+00  0.000E+00  0.000E+00  0.000E+00
 -0.030  0.000E+00  0.000E+00  0.000E+00  0.000E+00
 -0.020  0.000E+00  0.000E+00  0.000E+00  0.000E+00
 -0.010  0.000E+00  0.000E+00  0.000E+00  0.000E+00
  0.000  0.000E+00  0.000E+00  0.000E+00  0.000E+00
  0.010  0.000E+00  0.000E+00  0.000E+00  0.000E+00
  0.020  0.000E+00  0.000E+00  0.000E+00  0.000E+00
  0.030  0.000E+00  0.000E+00  0.000E+00  0.000E+00
  0.040  0.000E+00  0.000E+00  0.000E+00  0.000E+00
  0.050  0.000E+00  0.000E+00  0.000E+00  0.000E+00
  0.060  0.000E+00  0.000E+00  0.000E+00  0.000E+00
  0.070  0.000E+00  0.000E+00  0.000E+00  0.000E+00
  0.080  0.000E+00  0.000E+00  0.000E+00  0.000E+00
  0.090  0.000E+00  0.000E+00  0.000E+00  0.000E+00
  0.100  0.000E+00  0.000E+00  0.000E+00  0.000E+00
  0.110  0.000E+00  0.000E+00  0.000E+00  0.000E+00
  0.120  0.000E+00  0.000E+00  0.000E+00  0.000E+00
  0.130  0.000E+00  0.000E+00  0.000E+00  0.000E+00
  0.140  0.000E+00  0.000E+00  0.000E+00  0.000E+00
  0.150  0.000E+00  0.000E+00  0.000E+00  0.000E+00
  0.160  0.000E+00  0.000E+00  0.000E+00  0.000E+00
  0.170  0.000E+00  0.000E+00  0.000E+00  0.000E+00
  0.180  0.000E+00  0.000E+00  0.000E+00  0.000E+00
  0.190  0.000E+00  0.000E+00  0.000E+00  0.000E+00
  0.200  0.000E+00  0.000E+00  0.000E+00  0.000E+00
  0.210  0.000E+00  0.000E+00  0.000E+00  0.000E+00
  0.220  0.000E+00  0.000E+00  0.000E+00  0.000E+00
  0.230  0.000E+00  0.000E+00  0.000E+00  0.000E+00
  0.240  0.000E+00  0.000E+00  0.000E+00  0.000E+00
  0.250  0.000E+00  0.000E+00  0.000E+00  0.000E+00
  0.260  0.000E+00  0.000E+00  0.000E+00  0.000E+00
  0.270  0.000E+00  0.000E+00  0.000E+00  0.000E+00
  0.280  0.000E+00  0.000E+00  0.000E+00  0.000E+00
  0.290  0.000E+00  0.000E+00  0.000E+00  0.000E+00
  0.300  0.000E+00  0.000E+00  0.000E+00  0.000E+00
  0.310  0.000E+00  0.000E+00  0.000E+00  0.000E+00
  0.320  0.000E+00  0.000E+00  0.000E+00  0.000E+00
  0.330  0.000E+00  0.000E+00  0.000E+00  0.000E+00
  0.340  0.000E+00  0.000E+00  0.000E+00  0.000E+00
  0.350  0.000E+00  0.000E+00  0.000E+00  0.000E+00
  0.360  0.000E+00  0.000E+00  0.000E+00  0.000E+00
  0.370  0.000E+00  0.000E+00  0.000E+00  0.000E+00
  0.380  0.000E+00  0.000E+00  0.000E+00  0.000E+00
  0.390  0.000E+00  0.000E+00  0.000E+00  0.000E+00
  0.400  0.000E+00  0.000E+00  0.000E+00  0.000E+00
  0.410  0.000E+00  0.000E+00  0.000E+00  0.000E+00
  0.420  0.000E+00  0.000E+00  0.000E+00  0.000E+00
  0.430  0.000E+00  0.000E+00  0.000E+00  0.000E+00
  0.440  0.000E+00  0.000E+00  0.000E+00  0.000E+00
  0.450  0.000E+00  0.000E+00  0.000E+00  0.000E+00
  0.460  0.000E+00  0.000E+00  0.000E+00  0.000E+00
  0.470  0.000E+00  0.000E+00  0.000E+00  0.000E+00
  0.480  0.000E+00  0.000E+00  0.000E+00  0.000E+00
  0.490  0.000E+00  0.000E+00  0.000E+00  0.000E+00
  0.500  0.000E+00  0.000E+00  0.000E+00  0.000E+00
  0.510  0.000E+00  0.000E+00  0.000E+00  0.000E+00
  0.520  0.000E+00  0.000E+00  0.000E+00  0.000E+00
  0.530  0.000E+00  0.000E+00  0.000E+00  0.000E+00
  0.540  0.000E+00  0.000E+00  0.000E+00  0.000E+00
  0.550  0.000E+00  0.000E+00  0.000E+00  0.000E+00
  0.560  0.000E+00  0.000E+00  0.000E+00  0.000E+00
  0.570  0.000E+00  0.000E+00  0.000E+00  0.000E+00
  0.580  0.000E+00  0.000E+00  0.000E+00  0.000E+00
  0.590  0.000E+00  0.000E+00  0.000E+00  0.000E+00
  0.600  0.000E+00  0.000E+00  0.000E+00  0.000E+00
  0.610  0.000E+00  0.000E+00  0.000E+00  0.000E+00
  0.620  0.000E+00  0.000E+00  0.000E+00  0.000E+00
  0.630  0.000E+00  0.000E+00  0.000E+00  0.000E+00
  0.640  0.000E+00  0.000E+00  0.000E+00  0.000E+00
  0.650  0.000E+00  0.000E+00  0.000E+00  0.000E+00
  0.660  0.000E+00  0.000E+00  0.000E+00  0.000E+00
  0.670  0.000E+00  0.000E+00  0.000E+00  0.000E+00
  0.680  0.000E+00  0.000E+00  0.000E+00  0.000E+00
  0.690  0.000E+00  0.000E+00  0.000E+00  0.000E+00
  0.700  0.000E+00  0.000E+00  0.000E+00  0.000E+00
  0.710  0.000E+00  0.000E+00  0.000E+00  0.000E+00
  0.720  0.000E+00  0.000E+00  0.000E+00  0.000E+00
  0.730  0.000E+00  0.000E+00  0.000E+00  0.000E+00
  0.740  0.000E+00  0.000E+00  0.000E+00  0.000E+00
  0.750  0.000E+00  0.000E+00  0.000E+00  0.000E+00
  0.760  0.000E+00  0.000E+00  0.000E+00  0.000E+00
  0.770  0.000E+00  0.000E+00  0.000E+00  0.000E+00
  0.780  0.000E+00  0.000E+00  0.000E+00  0.000E+00
  0.790  0.000E+00  0.000E+00  0.000E+00  0.000E+00
  0.800  0.000E+00  0.000E+00  0.000E+00  0.000E+00
  0.810  0.000E+00  0.000E+00  0.000E+00  0.000E+00
  0.820  0.000E+00  0.000E+00  0.000E+00  0.000E+00
  0.830  0.000E+00  0.000E+00  0.000E+00  0.000E+00
  0.840  0.000E+00  0.000E+00  0.000E+00  0.000E+00
  0.850  0.000E+00  0.000E+00  0.000E+00  0.000E+00
  0.860  0.000E+00  0.000E+00  0.000E+00  0.000E+00
  0.870  0.000E+00  0.000E+00  0.000E+00  0.000E+00
  0.880  0.000E+00  0.000E+00  0.000E+00  0.000E+00
  0.890  0.000E+00  0.000E+00  0.000E+00  0.000E+00
  0.900  0.000E+00  0.000E+00  0.000E+00  0.000E+00
  0.910  0.000E+00  0.000E+00  0.000E+00  0.000E+00
  0.920  0.000E+00  0.000E+00  0.000E+00  0.000E+00
  0.930  0.000E+00  0.000E+00  0.000E+00  0.000E+00
  0.940  0.000E+00  0.000E+00  0.000E+00  0.000E+00
  0.950  0.000E+00  0.000E+00  0.000E+00  0.000E+00
  0.960  0.000E+00  0.000E+00  0.000E+00  0.000E+00
  0.970  0.000E+00  0.000E+00  0.000E+00  0.000E+00
  0.980  0.000E+00  0.000E+00  0.000E+00  0.000E+00
  0.990  0.000E+00  0.000E+00  0.000E+00  0.000E+00
  1.000  0.000E+00  0.000E+00  0.000E+00  0.000E+00
  1.010  0.000E+00  0.000E+00  0.000E+00  0.000E+00
  1.020  0.000E+00  0.000E+00  0.000E+00  0.000E+00
  1.030  0.000E+00  0.000E+00  0.000E+00  0.000E+00
  1.040  0.000E+00  0.000E+00  0.000E+00  0.000E+00
  1.050  0.000E+00  0.000E+00  0.000E+00  0.000E+00
  1.060  0.000E+00  0.000E+00  0.000E+00  0.000E+00
  1.070  0.000E+00  0.000E+00  0.000E+00  0.000E+00
  1.080  0.000E+00  0.000E+00  0.000E+00  0.000E+00
  1.090  0.000E+00  0.000E+00  0.000E+00  0.000E+00
  1.100  0.000E+00  0.000E+00  0.000E+00  0.000E+00
  1.110  0.000E+00  0.000E+00  0.000E+00  0.000E+00
  1.120  0.000E+00  0.000E+00  0.000E+00  0.000E+00
  1.130  0.000E+00  0.000E+00  0.000E+00  0.000E+00
  1.140  0.000E+00  0.000E+00  0.000E+00  0.000E+00
  1.150  0.000E+00  0.000E+00  0.000E+00  0.000E+00
  1.160  0.000E+00  0.000E+00  0.000E+00  0.000E+00
  1.170  0.000E+00  0.000E+00  0.000E+00  0.000E+00
  1.180  0.000E+00  0.000E+00  0.000E+00  0.000E+00
  1.190  0.000E+00  0.000E+00  0.000E+00  0.000E+00
  1.200  0.000E+00  0.000E+00  0.000E+00  0.000E+00
  1.210  0.000E+00  0.000E+00  0.000E+00  0.000E+00
  1.220  0.000E+00  0.000E+00  0.000E+00  0.000E+00
  1.230  0.000E+00  0.000E+00  0.000E+00  0.000E+00
  1.240  0.000E+00  0.000E+00  0.000E+00  0.000E+00
  1.250  0.000E+00  0.000E+00  0.000E+00  0.000E+00
  1.260  0.000E+00  0.000E+00  0.000E+00  0.000E+00
  1.270  0.000E+00  0.000E+00  0.000E+00  0.000E+00
  1.280  0.000E+00  0.000E+00  0.000E+00  0.000E+00
  1.290  0.000E+00  0.000E+00  0.000E+00  0.000E+00
  1.300  0.000E+00  0.000E+00  0.000E+00  0.000E+00
  1.310  0.000E+00  0.000E+00  0.000E+00  0.000E+00
  1.320  0.000E+00  0.000E+00  0.000E+00  0.000E+00
  1.330  0.000E+00  0.000E+00  0.000E+00  0.000E+00
  1.340  0.000E+00  0.000E+00  0.000E+00  0.000E+00
  1.350  0.000E+00  0.000E+00  0.000E+00  0.000E+00
  1.360  0.000E+00  0.000E+00  0.000E+00  0.000E+00
  1.370  0.000E+00  0.000E+00  0.000E+00  0.000E+00
  1.380  0.000E+00  0.000E+00  0.000E+00  0.000E+00
  1.390  0.000E+00  0.000E+00  0.000E+00  0.000E+00
  1.400  0.000E+00  0.000E+00  0.000E+00  0.000E+00
  1.410  0.000E+00  0.000E+00  0.000E+00  0.000E+00
  1.420  0.000E+00  0.000E+00  0.000E+00  0.000E+00
  1.430  0.000E+00  0.000E+00  0.000E+00  0.000E+00
  1.440  0.000E+00  0.000E+00  0.000E+00  0.000E+00
  1.450  0.000E+00  0.000E+00  0.000E+00  0.000E+00
  1.460  0.000E+00  0.000E+00  0.000E+00  0.000E+00
  1.470  0.000E+00  0.000E+00  0.000E+00  0.000E+00
  1.480  0.000E+00  0.000E+00  0.000E+00  0.000E+00
  1.490  0.000E+00  0.000E+00  0.000E+00  0.000E+00
  1.500  0.000E+00  0.000E+00  0.000E+00  0.000E+00
  1.510  0.000E+00  0.000E+00  0.000E+00  0.000E+00
  1.520  0.000E+00  0.000E+00  0.000E+00  0.000E+00
  1.530  0.000E+00  0.000E+00  0.000E+00  0.000E+00
  1.540  0.000E+00  0.000E+00  0.000E+00  0.000E+00
  1.550  0.000E+00  0.000E+00  0.000E+00  0.000E+00
  1.560  0.000E+00  0.000E+00  0.000E+00  0.000E+00
  1.570  0.000E+00  0.000E+00  0.000E+00  0.000E+00
  1.580  0.000E+00  0.000E+00  0.000E+00  0.000E+00
  1.590  0.000E+00  0.000E+00  0.000E+00  0.000E+00
  1.600  0.000E+00  0.000E+00  0.000E+00  0.000E+00
  1.610  0.000E+00  0.000E+00  0.000E+00  0.000E+00
  1.620  0.000E+00  0.000E+00  0.000E+00  0.000E+00
  1.630  0.000E+00  0.000E+00  0.000E+00  0.000E+00
  1.640  0.000E+00  0.000E+00  0.000E+00  0.000E+00
  1.650  0.000E+00  0.000E+00  0.000E+00  0.000E+00
  1.660  0.000E+00  0.000E+00  0.000E+00  0.000E+00
  1.670  0.000E+00  0.000E+00  0.000E+00  0.000E+00
  1.680  0.000E+00  0.000E+00  0.000E+00  0.000E+00
  1.690  0.000E+00  0.000E+00  0.000E+00  0.000E+00
  1.700  0.000E+00  0.000E+00  0.000E+00  0.000E+00
  1.710  0.000E+00  0.000E+00  0.000E+00  0.000E+00
  1.720  0.000E+00  0.000E+00  0.000E+00  0.000E+00
  1.730  0.000E+00  0.000E+00  0.000E+00  0.000E+00
  1.740  0.000E+00  0.000E+00  0.000E+00  0.000E+00
  1.750  0.000E+00  0.000E+00  0.000E+00  0.000E+00
  1.760  0.000E+00  0.000E+00  0.000E+00  0.000E+00
  1.770  0.000E+00  0.000E+00  0.000E+00  0.000E+00
  1.780  0.000E+00  0.000E+00  0.000E+00  0.000E+00
  1.790  0.000E+00  0.000E+00  0.000E+00  0.000E+00
  1.800  0.000E+00  0.000E+00  0.000E+00  0.000E+00
  1.810  0.000E+00  0.000E+00  0.000E+00  0.000E+00
  1.820  0.000E+00  0.000E+00  0.000E+00  0.000E+00
  1.830  0.000E+00  0.000E+00  0.000E+00  0.000E+00
  1.840  0.000E+00  0.000E+00  0.000E+00  0.000E+00
  1.850  0.000E+00  0.000E+00  0.000E+00  0.000E+00
  1.860  0.000E+00  0.000E+00  0.000E+00  0.000E+00
  1.870  0.000E+00  0.000E+00  0.000E+00  0.000E+00
  1.880  0.000E+00  0.000E+00  0.000E+00  0.000E+00
  1.890  0.000E+00  0.000E+00  0.000E+00  0.000E+00
  1.900  0.000E+00  0.000E+00  0.000E+00  0.000E+00
  1.910  0.000E+00  0.000E+00  0.000E+00  0.000E+00
  1.920  0.000E+00  0.000E+00  0.000E+00  0.000E+00
  1.930  0.000E+00  0.000E+00  0.000E+00  0.000E+00
  1.940  0.000E+00  0.000E+00  0.000E+00  0.000E+00
  1.950  0.000E+00  0.000E+00  0.000E+00  0.000E+00
  1.960  0.000E+00  0.000E+00  0.000E+00  0.000E+00
  1.970  0.000E+00  0.000E+00  0.000E+00  0.000E+00
  1.980  0.000E+00  0.000E+00  0.000E+00  0.000E+00
  1.990  0.000E+00  0.000E+00  0.000E+00  0.000E+00
  2.000  0.000E+00  0.000E+00  0.000E+00  0.000E+00
  2.010  0.000E+00  0.000E+00  0.000E+00  0.000E+00
  2.020  0.000E+00  0.000E+00  0.000E+00  0.000E+00
  2.030  0.000E+00  0.000E+00  0.000E+00  0.000E+00
  2.040  0.000E+00  0.000E+00  0.000E+00  0.000E+00
  2.050  0.000E+00  0.000E+00  0.000E+00  0.000E+00
  2.060  0.000E+00  0.000E+00  0.000E+00  0.000E+00
  2.070  0.000E+00  0.000E+00  0.000E+00  0.000E+00
  2.080  0.000E+00  0.000E+00  0.000E+00  0.000E+00
  2.090  0.000E+00  0.000E+00  0.000E+00  0.000E+00
  2.100  0.000E+00  0.000E+00  0.000E+00  0.000E+00
  2.110  0.000E+00  0.000E+00  0.000E+00  0.000E+00
  2.120  0.000E+00  0.000E+00  0.000E+00  0.000E+00
  2.130  0.000E+00  0.000E+00  0.000E+00  0.000E+00
  2.140  0.000E+00  0.000E+00  0.000E+00  0.000E+00
  2.150  0.000E+00  0.000E+00  0.000E+00  0.000E+00
  2.160  0.000E+00  0.000E+00  0.000E+00  0.000E+00
  2.170  0.000E+00  0.000E+00  0.000E+00  0.000E+00
  2.180  0.000E+00  0.000E+00  0.000E+00  0.000E+00
  2.190  0.000E+00  0.000E+00  0.000E+00  0.000E+00
  2.200  0.000E+00  0.000E+00  0.000E+00  0.000E+00
  2.210  0.000E+00  0.000E+00  0.000E+00  0.000E+00
  2.220  0.000E+00  0.000E+00  0.000E+00  0.000E+00
  2.230  0.000E+00  0.000E+00  0.000E+00  0.000E+00
  2.240  0.000E+00  0.000E+00  0.000E+00  0.000E+00
  2.250  0.000E+00  0.000E+00  0.000E+00  0.000E+00
  2.260  0.000E+00  0.000E+00  0.000E+00  0.000E+00
  2.270  0.000E+00  0.000E+00  0.000E+00  0.000E+00
  2.280  0.000E+00  0.000E+00  0.000E+00  0.000E+00
  2.290  0.000E+00  0.000E+00  0.000E+00  0.000E+00
  2.300  0.000E+00  0.000E+00  0.000E+00  0.000E+00
  2.310  0.000E+00  0.000E+00  0.000E+00  0.000E+00
  2.320  0.000E+00  0.000E+00  0.000E+00  0.000E+00
  2.330  0.000E+00  0.000E+00  0.000E+00  0.000E+00
  2.340  0.000E+00  0.000E+00  0.000E+00  0.000E+00
  2.350  0.000E+00  0.000E+00  0.000E+00  0.000E+00
  2.360  0.000E+00  0.000E+00  0.000E+00  0.000E+00
  2.370  0.000E+00  0.000E+00  0.000E+00  0.000E+00
  2.380  0.000E+00  0.000E+00  0.000E+00  0.000E+00
  2.390  0.000E+00  0.000E+00  0.000E+00  0.000E+00
  2.400  0.000E+00  0.000E+00  0.000E+00  0.000E+00
  2.410  0.000E+00  0.000E+00  0.000E+00  0.000E+00
  2.420  0.000E+00  0.000E+00  0.000E+00  0.000E+00
  2.430  0.000E+00  0.000E+00  0.000E+00  0.000E+00
  2.440  0.000E+00  0.000E+00  0.000E+00  0.000E+00
  2.450  0.000E+00  0.000E+00  0.000E+00  0.000E+00
  2.460  0.000E+00  0.000E+00  0.000E+00  0.000E+00
  2.470  0.000E+00  0.000E+00  0.000E+00  0.000E+00
  2.480  0.000E+00  0.000E+00  0.000E+00  0.000E+00
  2.490  0.000E+00  0.000E+00  0.000E+00  0.000E+00
  2.500  0.000E+00  0.000E+00  0.000E+00  0.000E+00
  2.510  0.000E+00  0.000E+00  0.000E+00  0.000E+00
  2.520  0.000E+00  0.000E+00  0.000E+00  0.000E+00
  2.530  0.000E+00  0.000E+00  0.000E+00  0.000E+00
  2.540  0.000E+00  0.000E+00  0.000E+00  0.000E+00
  2.550  0.000E+00  0.000E+00  0.000E+00  0.000E+00
  2.560  0.000E+00  0.000E+00  0.000E+00  0.000E+00
  2.570  0.000E+00  0.000E+00  0.000E+00  0.000E+00
  2.580  0.000E+00  0.000E+00  0.000E+00  0.000E+00
  2.590  0.000E+00  0.000E+00  0.000E+00  0.000E+00
  2.600  0.000E+00  0.000E+00  0.000E+00  0.000E+00
  2.610  0.000E+00  0.000E+00  0.000E+00  0.000E+00
  2.620  0.000E+00  0.000E+00  0.000E+00  0.000E+00
  2.630  0.000E+00  0.000E+00  0.000E+00  0.000E+00
  2.640  0.000E+00  0.000E+00  0.000E+00  0.000E+00
  2.650  0.000E+00  0.000E+00  0.000E+00  0.000E+00
  2.660  0.000E+00  0.000E+00  0.000E+00  0.000E+00
  2.670  0.000E+00  0.000E+00  0.000E+00  0.000E+00
  2.680  0.000E+00  0.000E+00  0.000E+00  0.000E+00
  2.690  0.000E+00  0.000E+00  0.000E+00  0.000E+00
  2.700  0.458E-14  0.153E-14  0.153E-14  0.153E-14
  2.710  0.959E-14  0.320E-14  0.320E-14  0.320E-14
  2.720  0.199E-13  0.663E-14  0.663E-14  0.663E-14
  2.730  0.617E-13  0.206E-13  0.206E-13  0.206E-13
  2.740  0.127E-12  0.423E-13  0.423E-13  0.423E-13
  2.750  0.258E-12  0.858E-13  0.858E-13  0.858E-13
  2.760  0.518E-12  0.173E-12  0.173E-12  0.173E-12
  2.770  0.110E-11  0.366E-12  0.366E-12  0.366E-12
  2.780  0.217E-11  0.724E-12  0.724E-12  0.724E-12
  2.790  0.425E-11  0.142E-11  0.142E-11  0.142E-11
  2.800  0.826E-11  0.275E-11  0.275E-11  0.275E-11
  2.810  0.158E-10  0.528E-11  0.528E-11  0.528E-11
  2.820  0.300E-10  0.100E-10  0.100E-10  0.100E-10
  2.830  0.564E-10  0.188E-10  0.188E-10  0.188E-10
  2.840  0.105E-09  0.350E-10  0.350E-10  0.350E-10
  2.850  0.193E-09  0.644E-10  0.644E-10  0.644E-10
  2.860  0.352E-09  0.117E-09  0.117E-09  0.117E-09
  2.870  0.634E-09  0.211E-09  0.211E-09  0.211E-09
  2.880  0.113E-08  0.377E-09  0.377E-09  0.377E-09
  2.890  0.200E-08  0.667E-09  0.667E-09  0.667E-09
  2.900  0.350E-08  0.117E-08  0.117E-08  0.117E-08
  2.910  0.606E-08  0.202E-08  0.202E-08  0.202E-08
  2.920  0.104E-07  0.346E-08  0.346E-08  0.346E-08
  2.930  0.176E-07  0.587E-08  0.587E-08  0.587E-08
  2.940  0.296E-07  0.987E-08  0.987E-08  0.987E-08
  2.950  0.492E-07  0.164E-07  0.164E-07  0.164E-07
  2.960  0.811E-07  0.270E-07  0.270E-07  0.270E-07
  2.970  0.132E-06  0.440E-07  0.440E-07  0.440E-07
  2.980  0.213E-06  0.711E-07  0.711E-07  0.711E-07
  2.990  0.341E-06  0.114E-06  0.114E-06  0.114E-06
  3.000  0.539E-06  0.180E-06  0.180E-06  0.180E-06
  3.010  0.845E-06  0.282E-06  0.282E-06  0.282E-06
  3.020  0.131E-05  0.437E-06  0.437E-06  0.437E-06
  3.030  0.201E-05  0.671E-06  0.671E-06  0.671E-06
  3.040  0.306E-05  0.102E-05  0.102E-05  0.102E-05
  3.050  0.461E-05  0.154E-05  0.154E-05  0.154E-05
  3.060  0.687E-05  0.229E-05  0.229E-05  0.229E-05
  3.070  0.101E-04  0.338E-05  0.338E-05  0.338E-05
  3.080  0.148E-04  0.494E-05  0.494E-05  0.494E-05
  3.090  0.215E-04  0.715E-05  0.715E-05  0.715E-05
  3.100  0.308E-04  0.103E-04  0.103E-04  0.103E-04
  3.110  0.437E-04  0.146E-04  0.146E-04  0.146E-04
  3.120  0.615E-04  0.205E-04  0.205E-04  0.205E-04
  3.130  0.856E-04  0.285E-04  0.285E-04  0.285E-04
  3.140  0.118E-03  0.394E-04  0.394E-04  0.394E-04
  3.150  0.161E-03  0.538E-04  0.538E-04  0.538E-04
  3.160  0.219E-03  0.728E-04  0.728E-04  0.728E-04
  3.170  0.293E-03  0.977E-04  0.977E-04  0.977E-04
  3.180  0.389E-03  0.130E-03  0.130E-03  0.130E-03
  3.190  0.512E-03  0.171E-03  0.171E-03  0.171E-03
  3.200  0.668E-03  0.223E-03  0.223E-03  0.223E-03
  3.210  0.864E-03  0.288E-03  0.288E-03  0.288E-03
  3.220  0.111E-02  0.369E-03  0.369E-03  0.369E-03
  3.230  0.140E-02  0.468E-03  0.468E-03  0.468E-03
  3.240  0.177E-02  0.589E-03  0.589E-03  0.589E-03
  3.250  0.220E-02  0.734E-03  0.734E-03  0.734E-03
  3.260  0.272E-02  0.907E-03  0.907E-03  0.907E-03
  3.270  0.334E-02  0.111E-02  0.111E-02  0.111E-02
  3.280  0.405E-02  0.135E-02  0.135E-02  0.135E-02
  3.290  0.489E-02  0.163E-02  0.163E-02  0.163E-02
  3.300  0.584E-02  0.195E-02  0.195E-02  0.195E-02
  3.310  0.693E-02  0.231E-02  0.231E-02  0.231E-02
  3.320  0.815E-02  0.272E-02  0.272E-02  0.272E-02
  3.330  0.952E-02  0.317E-02  0.317E-02  0.317E-02
  3.340  0.110E-01  0.368E-02  0.368E-02  0.368E-02
  3.350  0.127E-01  0.423E-02  0.423E-02  0.423E-02
  3.360  0.145E-01  0.483E-02  0.483E-02  0.483E-02
  3.370  0.164E-01  0.548E-02  0.548E-02  0.548E-02
  3.380  0.185E-01  0.618E-02  0.618E-02  0.618E-02
  3.390  0.207E-01  0.691E-02  0.691E-02  0.691E-02
  3.400  0.231E-01  0.769E-02  0.769E-02  0.769E-02
  3.410  0.255E-01  0.851E-02  0.851E-02  0.851E-02
  3.420  0.280E-01  0.935E-02  0.935E-02  0.935E-02
  3.430  0.307E-01  0.102E-01  0.102E-01  0.102E-01
  3.440  0.333E-01  0.111E-01  0.111E-01  0.111E-01
  3.450  0.361E-01  0.120E-01  0.120E-01  0.120E-01
  3.460  0.388E-01  0.129E-01  0.129E-01  0.129E-01
  3.470  0.416E-01  0.139E-01  0.139E-01  0.139E-01
  3.480  0.443E-01  0.148E-01  0.148E-01  0.148E-01
  3.490  0.471E-01  0.157E-01  0.157E-01  0.157E-01
  3.500  0.498E-01  0.166E-01  0.166E-01  0.166E-01
  3.510  0.525E-01  0.175E-01  0.175E-01  0.175E-01
  3.520  0.552E-01  0.184E-01  0.184E-01  0.184E-01
  3.530  0.578E-01  0.193E-01  0.193E-01  0.193E-01
  3.540  0.603E-01  0.201E-01  0.201E-01  0.201E-01
  3.550  0.628E-01  0.209E-01  0.209E-01  0.209E-01
  3.560  0.653E-01  0.218E-01  0.218E-01  0.218E-01
  3.570  0.677E-01  0.226E-01  0.226E-01  0.226E-01
  3.580  0.700E-01  0.233E-01  0.233E-01  0.233E-01
  3.590  0.724E-01  0.241E-01  0.241E-01  0.241E-01
  3.600  0.746E-01  0.249E-01  0.249E-01  0.249E-01
  3.610  0.769E-01  0.256E-01  0.256E-01  0.256E-01
  3.620  0.791E-01  0.264E-01  0.264E-01  0.264E-01
  3.630  0.813E-01  0.271E-01  0.271E-01  0.271E-01
  3.640  0.834E-01  0.278E-01  0.278E-01  0.278E-01
  3.650  0.856E-01  0.285E-01  0.285E-01  0.285E-01
  3.660  0.876E-01  0.292E-01  0.292E-01  0.292E-01
  3.670  0.897E-01  0.299E-01  0.299E-01  0.299E-01
  3.680  0.917E-01  0.306E-01  0.306E-01  0.306E-01
  3.690  0.937E-01  0.312E-01  0.312E-01  0.312E-01
  3.700  0.956E-01  0.319E-01  0.319E-01  0.319E-01
  3.710  0.975E-01  0.325E-01  0.325E-01  0.325E-01
  3.720  0.994E-01  0.331E-01  0.331E-01  0.331E-01
  3.730  0.101E+00  0.337E-01  0.337E-01  0.337E-01
  3.740  0.103E+00  0.343E-01  0.343E-01  0.343E-01
  3.750  0.105E+00  0.349E-01  0.349E-01  0.349E-01
  3.760  0.107E+00  0.355E-01  0.355E-01  0.355E-01
  3.770  0.108E+00  0.361E-01  0.361E-01  0.361E-01
  3.780  0.110E+00  0.367E-01  0.367E-01  0.367E-01
  3.790  0.112E+00  0.373E-01  0.373E-01  0.373E-01
  3.800  0.114E+00  0.379E-01  0.379E-01  0.379E-01
  3.810  0.115E+00  0.385E-01  0.385E-01  0.385E-01
  3.820  0.117E+00  0.391E-01  0.391E-01  0.391E-01
  3.830  0.119E+00  0.397E-01  0.397E-01  0.397E-01
  3.840  0.121E+00  0.404E-01  0.404E-01  0.404E-01
  3.850  0.123E+00  0.410E-01  0.410E-01  0.410E-01
  3.860  0.125E+00  0.417E-01  0.417E-01  0.417E-01
  3.870  0.127E+00  0.424E-01  0.424E-01  0.424E-01
  3.880  0.129E+00  0.430E-01  0.430E-01  0.430E-01
  3.890  0.131E+00  0.437E-01  0.437E-01  0.437E-01
  3.900  0.133E+00  0.444E-01  0.444E-01  0.444E-01
  3.910  0.135E+00  0.451E-01  0.451E-01  0.451E-01
  3.920  0.137E+00  0.458E-01  0.458E-01  0.458E-01
  3.930  0.139E+00  0.464E-01  0.464E-01  0.464E-01
  3.940  0.141E+00  0.471E-01  0.471E-01  0.471E-01
  3.950  0.143E+00  0.478E-01  0.478E-01  0.478E-01
  3.960  0.145E+00  0.485E-01  0.485E-01  0.485E-01
  3.970  0.148E+00  0.492E-01  0.492E-01  0.492E-01
  3.980  0.150E+00  0.499E-01  0.499E-01  0.499E-01
  3.990  0.152E+00  0.507E-01  0.507E-01  0.507E-01
  4.000  0.154E+00  0.515E-01  0.515E-01  0.515E-01
  4.010  0.157E+00  0.523E-01  0.523E-01  0.523E-01
  4.020  0.159E+00  0.531E-01  0.531E-01  0.531E-01
  4.030  0.162E+00  0.540E-01  0.540E-01  0.540E-01
  4.040  0.165E+00  0.549E-01  0.549E-01  0.549E-01
  4.050  0.168E+00  0.559E-01  0.559E-01  0.559E-01
  4.060  0.171E+00  0.569E-01  0.569E-01  0.569E-01
  4.070  0.174E+00  0.579E-01  0.579E-01  0.579E-01
  4.080  0.177E+00  0.590E-01  0.590E-01  0.590E-01
  4.090  0.180E+00  0.600E-01  0.600E-01  0.600E-01
  4.100  0.183E+00  0.611E-01  0.611E-01  0.611E-01
  4.110  0.186E+00  0.621E-01  0.621E-01  0.621E-01
  4.120  0.189E+00  0.631E-01  0.631E-01  0.631E-01
  4.130  0.192E+00  0.640E-01  0.640E-01  0.640E-01
  4.140  0.195E+00  0.649E-01  0.649E-01  0.649E-01
  4.150  0.197E+00  0.656E-01  0.656E-01  0.656E-01
  4.160  0.199E+00  0.663E-01  0.663E-01  0.663E-01
  4.170  0.200E+00  0.668E-01  0.668E-01  0.668E-01
  4.180  0.202E+00  0.672E-01  0.672E-01  0.672E-01
  4.190  0.202E+00  0.675E-01  0.675E-01  0.675E-01
  4.200  0.203E+00  0.676E-01  0.676E-01  0.676E-01
  4.210  0.202E+00  0.675E-01  0.675E-01  0.675E-01
  4.220  0.202E+00  0.672E-01  0.672E-01  0.672E-01
  4.230  0.200E+00  0.668E-01  0.668E-01  0.668E-01
  4.240  0.199E+00  0.662E-01  0.662E-01  0.662E-01
  4.250  0.196E+00  0.654E-01  0.654E-01  0.654E-01
  4.260  0.193E+00  0.645E-01  0.645E-01  0.645E-01
  4.270  0.190E+00  0.634E-01  0.634E-01  0.634E-01
  4.280  0.186E+00  0.622E-01  0.622E-01  0.622E-01
  4.290  0.182E+00  0.608E-01  0.608E-01  0.608E-01
  4.300  0.178E+00  0.593E-01  0.593E-01  0.593E-01
  4.310  0.173E+00  0.578E-01  0.578E-01  0.578E-01
  4.320  0.168E+00  0.561E-01  0.561E-01  0.561E-01
  4.330  0.163E+00  0.544E-01  0.544E-01  0.544E-01
  4.340  0.158E+00  0.527E-01  0.527E-01  0.527E-01
  4.350  0.153E+00  0.510E-01  0.510E-01  0.510E-01
  4.360  0.148E+00  0.493E-01  0.493E-01  0.493E-01
  4.370  0.143E+00  0.476E-01  0.476E-01  0.476E-01
  4.380  0.138E+00  0.460E-01  0.460E-01  0.460E-01
  4.390  0.133E+00  0.444E-01  0.444E-01  0.444E-01
  4.400  0.129E+00  0.429E-01  0.429E-01  0.429E-01
  4.410  0.124E+00  0.414E-01  0.414E-01  0.414E-01
  4.420  0.120E+00  0.401E-01  0.401E-01  0.401E-01
  4.430  0.116E+00  0.388E-01  0.388E-01  0.388E-01
  4.440  0.113E+00  0.375E-01  0.375E-01  0.375E-01
  4.450  0.109E+00  0.364E-01  0.364E-01  0.364E-01
  4.460  0.106E+00  0.353E-01  0.353E-01  0.353E-01
  4.470  0.103E+00  0.343E-01  0.343E-01  0.343E-01
  4.480  0.100E+00  0.334E-01  0.334E-01  0.334E-01
  4.490  0.975E-01  0.325E-01  0.325E-01  0.325E-01
  4.500  0.950E-01  0.317E-01  0.317E-01  0.317E-01
  4.510  0.926E-01  0.309E-01  0.309E-01  0.309E-01
  4.520  0.904E-01  0.301E-01  0.301E-01  0.301E-01
  4.530  0.883E-01  0.294E-01  0.294E-01  0.294E-01
  4.540  0.863E-01  0.288E-01  0.288E-01  0.288E-01
  4.550  0.843E-01  0.281E-01  0.281E-01  0.281E-01
  4.560  0.825E-01  0.275E-01  0.275E-01  0.275E-01
  4.570  0.808E-01  0.269E-01  0.269E-01  0.269E-01
  4.580  0.791E-01  0.264E-01  0.264E-01  0.264E-01
  4.590  0.775E-01  0.258E-01  0.258E-01  0.258E-01
  4.600  0.761E-01  0.254E-01  0.254E-01  0.254E-01
  4.610  0.747E-01  0.249E-01  0.249E-01  0.249E-01
  4.620  0.734E-01  0.245E-01  0.245E-01  0.245E-01
  4.630  0.722E-01  0.241E-01  0.241E-01  0.241E-01
  4.640  0.711E-01  0.237E-01  0.237E-01  0.237E-01
  4.650  0.701E-01  0.234E-01  0.234E-01  0.234E-01
  4.660  0.691E-01  0.230E-01  0.230E-01  0.230E-01
  4.670  0.682E-01  0.227E-01  0.227E-01  0.227E-01
  4.680  0.673E-01  0.224E-01  0.224E-01  0.224E-01
  4.690  0.665E-01  0.222E-01  0.222E-01  0.222E-01
  4.700  0.657E-01  0.219E-01  0.219E-01  0.219E-01
  4.710  0.649E-01  0.216E-01  0.216E-01  0.216E-01
  4.720  0.641E-01  0.214E-01  0.214E-01  0.214E-01
  4.730  0.632E-01  0.211E-01  0.211E-01  0.211E-01
  4.740  0.623E-01  0.208E-01  0.208E-01  0.208E-01
  4.750  0.614E-01  0.205E-01  0.205E-01  0.205E-01
  4.760  0.604E-01  0.201E-01  0.201E-01  0.201E-01
  4.770  0.593E-01  0.198E-01  0.198E-01  0.198E-01
  4.780  0.583E-01  0.194E-01  0.194E-01  0.194E-01
  4.790  0.572E-01  0.191E-01  0.191E-01  0.191E-01
  4.800  0.561E-01  0.187E-01  0.187E-01  0.187E-01
  4.810  0.550E-01  0.183E-01  0.183E-01  0.183E-01
  4.820  0.539E-01  0.180E-01  0.180E-01  0.180E-01
  4.830  0.528E-01  0.176E-01  0.176E-01  0.176E-01
  4.840  0.519E-01  0.173E-01  0.173E-01  0.173E-01
  4.850  0.510E-01  0.170E-01  0.170E-01  0.170E-01
  4.860  0.502E-01  0.167E-01  0.167E-01  0.167E-01
  4.870  0.495E-01  0.165E-01  0.165E-01  0.165E-01
  4.880  0.488E-01  0.163E-01  0.163E-01  0.163E-01
  4.890  0.483E-01  0.161E-01  0.161E-01  0.161E-01
  4.900  0.479E-01  0.160E-01  0.160E-01  0.160E-01
  4.910  0.475E-01  0.158E-01  0.158E-01  0.158E-01
  4.920  0.472E-01  0.157E-01  0.157E-01  0.157E-01
  4.930  0.469E-01  0.156E-01  0.156E-01  0.156E-01
  4.940  0.467E-01  0.156E-01  0.156E-01  0.156E-01
  4.950  0.465E-01  0.155E-01  0.155E-01  0.155E-01
  4.960  0.463E-01  0.154E-01  0.154E-01  0.154E-01
  4.970  0.460E-01  0.153E-01  0.153E-01  0.153E-01
  4.980  0.457E-01  0.152E-01  0.152E-01  0.152E-01
  4.990  0.454E-01  0.151E-01  0.151E-01  0.151E-01
  5.000  0.450E-01  0.150E-01  0.150E-01  0.150E-01
  5.010  0.446E-01  0.149E-01  0.149E-01  0.149E-01
  5.020  0.441E-01  0.147E-01  0.147E-01  0.147E-01
  5.030  0.435E-01  0.145E-01  0.145E-01  0.145E-01
  5.040  0.429E-01  0.143E-01  0.143E-01  0.143E-01
  5.050  0.422E-01  0.141E-01  0.141E-01  0.141E-01
  5.060  0.415E-01  0.138E-01  0.138E-01  0.138E-01
  5.070  0.407E-01  0.136E-01  0.136E-01  0.136E-01
  5.080  0.399E-01  0.133E-01  0.133E-01  0.133E-01
  5.090  0.391E-01  0.130E-01  0.130E-01  0.130E-01
  5.100  0.382E-01  0.127E-01  0.127E-01  0.127E-01
  5.110  0.374E-01  0.125E-01  0.125E-01  0.125E-01
  5.120  0.366E-01  0.122E-01  0.122E-01  0.122E-01
  5.130  0.358E-01  0.119E-01  0.119E-01  0.119E-01
  5.140  0.350E-01  0.117E-01  0.117E-01  0.117E-01
  5.150  0.343E-01  0.114E-01  0.114E-01  0.114E-01
  5.160  0.337E-01  0.112E-01  0.112E-01  0.112E-01
  5.170  0.331E-01  0.110E-01  0.110E-01  0.110E-01
  5.180  0.327E-01  0.109E-01  0.109E-01  0.109E-01
  5.190  0.323E-01  0.108E-01  0.108E-01  0.108E-01
  5.200  0.320E-01  0.107E-01  0.107E-01  0.107E-01
  5.210  0.318E-01  0.106E-01  0.106E-01  0.106E-01
  5.220  0.316E-01  0.105E-01  0.105E-01  0.105E-01
  5.230  0.316E-01  0.105E-01  0.105E-01  0.105E-01
  5.240  0.316E-01  0.105E-01  0.105E-01  0.105E-01
  5.250  0.316E-01  0.105E-01  0.105E-01  0.105E-01
  5.260  0.317E-01  0.106E-01  0.106E-01  0.106E-01
  5.270  0.318E-01  0.106E-01  0.106E-01  0.106E-01
  5.280  0.319E-01  0.106E-01  0.106E-01  0.106E-01
  5.290  0.319E-01  0.106E-01  0.106E-01  0.106E-01
  5.300  0.319E-01  0.106E-01  0.106E-01  0.106E-01
  5.310  0.319E-01  0.106E-01  0.106E-01  0.106E-01
  5.320  0.318E-01  0.106E-01  0.106E-01  0.106E-01
  5.330  0.316E-01  0.105E-01  0.105E-01  0.105E-01
  5.340  0.314E-01  0.105E-01  0.105E-01  0.105E-01
  5.350  0.311E-01  0.104E-01  0.104E-01  0.104E-01
  5.360  0.307E-01  0.102E-01  0.102E-01  0.102E-01
  5.370  0.302E-01  0.101E-01  0.101E-01  0.101E-01
  5.380  0.297E-01  0.989E-02  0.989E-02  0.989E-02
  5.390  0.291E-01  0.970E-02  0.970E-02  0.970E-02
  5.400  0.285E-01  0.949E-02  0.949E-02  0.949E-02
  5.410  0.278E-01  0.927E-02  0.927E-02  0.927E-02
  5.420  0.272E-01  0.905E-02  0.905E-02  0.905E-02
  5.430  0.265E-01  0.883E-02  0.883E-02  0.883E-02
  5.440  0.258E-01  0.861E-02  0.861E-02  0.861E-02
  5.450  0.252E-01  0.840E-02  0.840E-02  0.840E-02
  5.460  0.246E-01  0.821E-02  0.821E-02  0.821E-02
  5.470  0.241E-01  0.803E-02  0.803E-02  0.803E-02
  5.480  0.236E-01  0.788E-02  0.788E-02  0.788E-02
  5.490  0.233E-01  0.776E-02  0.776E-02  0.776E-02
  5.500  0.230E-01  0.767E-02  0.767E-02  0.767E-02
  5.510  0.229E-01  0.762E-02  0.762E-02  0.762E-02
  5.520  0.228E-01  0.761E-02  0.761E-02  0.761E-02
  5.530  0.230E-01  0.766E-02  0.766E-02  0.766E-02
  5.540  0.233E-01  0.776E-02  0.776E-02  0.776E-02
  5.550  0.238E-01  0.793E-02  0.793E-02  0.793E-02
  5.560  0.245E-01  0.816E-02  0.816E-02  0.816E-02
  5.570  0.254E-01  0.848E-02  0.848E-02  0.848E-02
  5.580  0.266E-01  0.888E-02  0.888E-02  0.888E-02
  5.590  0.281E-01  0.936E-02  0.936E-02  0.936E-02
  5.600  0.299E-01  0.995E-02  0.995E-02  0.995E-02
  5.610  0.319E-01  0.106E-01  0.106E-01  0.106E-01
  5.620  0.343E-01  0.114E-01  0.114E-01  0.114E-01
  5.630  0.371E-01  0.124E-01  0.124E-01  0.124E-01
  5.640  0.402E-01  0.134E-01  0.134E-01  0.134E-01
  5.650  0.437E-01  0.146E-01  0.146E-01  0.146E-01
  5.660  0.476E-01  0.159E-01  0.159E-01  0.159E-01
  5.670  0.519E-01  0.173E-01  0.173E-01  0.173E-01
  5.680  0.565E-01  0.188E-01  0.188E-01  0.188E-01
  5.690  0.616E-01  0.205E-01  0.205E-01  0.205E-01
  5.700  0.670E-01  0.223E-01  0.223E-01  0.223E-01
  5.710  0.728E-01  0.243E-01  0.243E-01  0.243E-01
  5.720  0.790E-01  0.263E-01  0.263E-01  0.263E-01
  5.730  0.856E-01  0.285E-01  0.285E-01  0.285E-01
  5.740  0.924E-01  0.308E-01  0.308E-01  0.308E-01
  5.750  0.996E-01  0.332E-01  0.332E-01  0.332E-01
  5.760  0.107E+00  0.357E-01  0.357E-01  0.357E-01
  5.770  0.115E+00  0.383E-01  0.383E-01  0.383E-01
  5.780  0.123E+00  0.409E-01  0.409E-01  0.409E-01
  5.790  0.131E+00  0.437E-01  0.437E-01  0.437E-01
  5.800  0.139E+00  0.464E-01  0.464E-01  0.464E-01
  5.810  0.148E+00  0.493E-01  0.493E-01  0.493E-01
  5.820  0.156E+00  0.522E-01  0.522E-01  0.522E-01
  5.830  0.165E+00  0.551E-01  0.551E-01  0.551E-01
  5.840  0.174E+00  0.580E-01  0.580E-01  0.580E-01
  5.850  0.183E+00  0.609E-01  0.609E-01  0.609E-01
  5.860  0.191E+00  0.638E-01  0.638E-01  0.638E-01
  5.870  0.200E+00  0.667E-01  0.667E-01  0.667E-01
  5.880  0.209E+00  0.696E-01  0.696E-01  0.696E-01
  5.890  0.217E+00  0.724E-01  0.724E-01  0.724E-01
  5.900  0.226E+00  0.752E-01  0.752E-01  0.752E-01
  5.910  0.234E+00  0.779E-01  0.779E-01  0.779E-01
  5.920  0.241E+00  0.805E-01  0.805E-01  0.805E-01
  5.930  0.249E+00  0.830E-01  0.830E-01  0.830E-01
  5.940  0.256E+00  0.854E-01  0.854E-01  0.854E-01
  5.950  0.263E+00  0.877E-01  0.877E-01  0.877E-01
  5.960  0.270E+00  0.898E-01  0.898E-01  0.898E-01
  5.970  0.276E+00  0.919E-01  0.919E-01  0.919E-01
  5.980  0.281E+00  0.937E-01  0.937E-01  0.937E-01
  5.990  0.286E+00  0.954E-01  0.954E-01  0.954E-01
  6.000  0.291E+00  0.969E-01  0.969E-01  0.969E-01
  6.010  0.295E+00  0.982E-01  0.982E-01  0.982E-01
  6.020  0.298E+00  0.993E-01  0.993E-01  0.993E-01
  6.030  0.301E+00  0.100E+00  0.100E+00  0.100E+00
  6.040  0.303E+00  0.101E+00  0.101E+00  0.101E+00
  6.050  0.305E+00  0.102E+00  0.102E+00  0.102E+00
  6.060  0.306E+00  0.102E+00  0.102E+00  0.102E+00
  6.070  0.306E+00  0.102E+00  0.102E+00  0.102E+00
  6.080  0.307E+00  0.102E+00  0.102E+00  0.102E+00
  6.090  0.306E+00  0.102E+00  0.102E+00  0.102E+00
  6.100  0.305E+00  0.102E+00  0.102E+00  0.102E+00
  6.110  0.304E+00  0.101E+00  0.101E+00  0.101E+00
  6.120  0.303E+00  0.101E+00  0.101E+00  0.101E+00
  6.130  0.301E+00  0.100E+00  0.100E+00  0.100E+00
  6.140  0.299E+00  0.996E-01  0.996E-01  0.996E-01
  6.150  0.297E+00  0.989E-01  0.989E-01  0.989E-01
  6.160  0.294E+00  0.981E-01  0.981E-01  0.981E-01
  6.170  0.292E+00  0.973E-01  0.973E-01  0.973E-01
  6.180  0.289E+00  0.964E-01  0.964E-01  0.964E-01
  6.190  0.286E+00  0.955E-01  0.955E-01  0.955E-01
  6.200  0.284E+00  0.946E-01  0.946E-01  0.946E-01
  6.210  0.281E+00  0.936E-01  0.936E-01  0.936E-01
  6.220  0.278E+00  0.927E-01  0.927E-01  0.927E-01
  6.230  0.275E+00  0.917E-01  0.917E-01  0.917E-01
  6.240  0.272E+00  0.908E-01  0.908E-01  0.908E-01
  6.250  0.270E+00  0.899E-01  0.899E-01  0.899E-01
  6.260  0.267E+00  0.890E-01  0.890E-01  0.890E-01
  6.270  0.265E+00  0.882E-01  0.882E-01  0.882E-01
  6.280  0.263E+00  0.875E-01  0.875E-01  0.875E-01
  6.290  0.261E+00  0.869E-01  0.869E-01  0.869E-01
  6.300  0.259E+00  0.863E-01  0.863E-01  0.863E-01
  6.310  0.258E+00  0.858E-01  0.858E-01  0.858E-01
  6.320  0.256E+00  0.855E-01  0.855E-01  0.855E-01
  6.330  0.256E+00  0.852E-01  0.852E-01  0.852E-01
  6.340  0.255E+00  0.851E-01  0.851E-01  0.851E-01
  6.350  0.255E+00  0.850E-01  0.850E-01  0.850E-01
  6.360  0.255E+00  0.850E-01  0.850E-01  0.850E-01
  6.370  0.255E+00  0.851E-01  0.851E-01  0.851E-01
  6.380  0.256E+00  0.853E-01  0.853E-01  0.853E-01
  6.390  0.256E+00  0.854E-01  0.854E-01  0.854E-01
  6.400  0.257E+00  0.856E-01  0.856E-01  0.856E-01
  6.410  0.258E+00  0.858E-01  0.858E-01  0.858E-01
  6.420  0.258E+00  0.860E-01  0.860E-01  0.860E-01
  6.430  0.259E+00  0.862E-01  0.862E-01  0.862E-01
  6.440  0.259E+00  0.864E-01  0.864E-01  0.864E-01
  6.450  0.260E+00  0.865E-01  0.865E-01  0.865E-01
  6.460  0.260E+00  0.866E-01  0.866E-01  0.866E-01
  6.470  0.260E+00  0.867E-01  0.867E-01  0.867E-01
  6.480  0.260E+00  0.868E-01  0.868E-01  0.868E-01
  6.490  0.261E+00  0.869E-01  0.869E-01  0.869E-01
  6.500  0.261E+00  0.870E-01  0.870E-01  0.870E-01
  6.510  0.261E+00  0.870E-01  0.870E-01  0.870E-01
  6.520  0.261E+00  0.871E-01  0.871E-01  0.871E-01
  6.530  0.262E+00  0.873E-01  0.873E-01  0.873E-01
  6.540  0.262E+00  0.874E-01  0.874E-01  0.874E-01
  6.550  0.263E+00  0.876E-01  0.876E-01  0.876E-01
  6.560  0.263E+00  0.878E-01  0.878E-01  0.878E-01
  6.570  0.264E+00  0.880E-01  0.880E-01  0.880E-01
  6.580  0.265E+00  0.882E-01  0.882E-01  0.882E-01
  6.590  0.265E+00  0.885E-01  0.885E-01  0.885E-01
  6.600  0.266E+00  0.888E-01  0.888E-01  0.888E-01
  6.610  0.267E+00  0.891E-01  0.891E-01  0.891E-01
  6.620  0.268E+00  0.894E-01  0.894E-01  0.894E-01
  6.630  0.269E+00  0.897E-01  0.897E-01  0.897E-01
  6.640  0.270E+00  0.901E-01  0.901E-01  0.901E-01
  6.650  0.272E+00  0.905E-01  0.905E-01  0.905E-01
  6.660  0.273E+00  0.910E-01  0.910E-01  0.910E-01
  6.670  0.275E+00  0.915E-01  0.915E-01  0.915E-01
  6.680  0.276E+00  0.921E-01  0.921E-01  0.921E-01
  6.690  0.278E+00  0.928E-01  0.928E-01  0.928E-01
  6.700  0.281E+00  0.935E-01  0.935E-01  0.935E-01
  6.710  0.283E+00  0.944E-01  0.944E-01  0.944E-01
  6.720  0.286E+00  0.953E-01  0.953E-01  0.953E-01
  6.730  0.289E+00  0.963E-01  0.963E-01  0.963E-01
  6.740  0.292E+00  0.974E-01  0.974E-01  0.974E-01
  6.750  0.296E+00  0.986E-01  0.986E-01  0.986E-01
  6.760  0.299E+00  0.998E-01  0.998E-01  0.998E-01
  6.770  0.303E+00  0.101E+00  0.101E+00  0.101E+00
  6.780  0.307E+00  0.102E+00  0.102E+00  0.102E+00
  6.790  0.311E+00  0.104E+00  0.104E+00  0.104E+00
  6.800  0.314E+00  0.105E+00  0.105E+00  0.105E+00
  6.810  0.318E+00  0.106E+00  0.106E+00  0.106E+00
  6.820  0.321E+00  0.107E+00  0.107E+00  0.107E+00
  6.830  0.324E+00  0.108E+00  0.108E+00  0.108E+00
  6.840  0.327E+00  0.109E+00  0.109E+00  0.109E+00
  6.850  0.329E+00  0.110E+00  0.110E+00  0.110E+00
  6.860  0.331E+00  0.110E+00  0.110E+00  0.110E+00
  6.870  0.333E+00  0.111E+00  0.111E+00  0.111E+00
  6.880  0.334E+00  0.111E+00  0.111E+00  0.111E+00
  6.890  0.334E+00  0.111E+00  0.111E+00  0.111E+00
  6.900  0.334E+00  0.111E+00  0.111E+00  0.111E+00
  6.910  0.334E+00  0.111E+00  0.111E+00  0.111E+00
  6.920  0.334E+00  0.111E+00  0.111E+00  0.111E+00
  6.930  0.333E+00  0.111E+00  0.111E+00  0.111E+00
  6.940  0.332E+00  0.111E+00  0.111E+00  0.111E+00
  6.950  0.331E+00  0.110E+00  0.110E+00  0.110E+00
  6.960  0.330E+00  0.110E+00  0.110E+00  0.110E+00
  6.970  0.329E+00  0.110E+00  0.110E+00  0.110E+00
  6.980  0.328E+00  0.109E+00  0.109E+00  0.109E+00
  6.990  0.328E+00  0.109E+00  0.109E+00  0.109E+00
  7.000  0.327E+00  0.109E+00  0.109E+00  0.109E+00
  7.010  0.326E+00  0.109E+00  0.109E+00  0.109E+00
  7.020  0.326E+00  0.109E+00  0.109E+00  0.109E+00
  7.030  0.326E+00  0.109E+00  0.109E+00  0.109E+00
  7.040  0.326E+00  0.109E+00  0.109E+00  0.109E+00
  7.050  0.326E+00  0.109E+00  0.109E+00  0.109E+00
  7.060  0.326E+00  0.109E+00  0.109E+00  0.109E+00
  7.070  0.325E+00  0.108E+00  0.108E+00  0.108E+00
  7.080  0.325E+00  0.108E+00  0.108E+00  0.108E+00
  7.090  0.325E+00  0.108E+00  0.108E+00  0.108E+00
  7.100  0.325E+00  0.108E+00  0.108E+00  0.108E+00
  7.110  0.325E+00  0.108E+00  0.108E+00  0.108E+00
  7.120  0.324E+00  0.108E+00  0.108E+00  0.108E+00
  7.130  0.323E+00  0.108E+00  0.108E+00  0.108E+00
  7.140  0.323E+00  0.108E+00  0.108E+00  0.108E+00
  7.150  0.322E+00  0.107E+00  0.107E+00  0.107E+00
  7.160  0.321E+00  0.107E+00  0.107E+00  0.107E+00
  7.170  0.320E+00  0.107E+00  0.107E+00  0.107E+00
  7.180  0.318E+00  0.106E+00  0.106E+00  0.106E+00
  7.190  0.317E+00  0.106E+00  0.106E+00  0.106E+00
  7.200  0.316E+00  0.105E+00  0.105E+00  0.105E+00
  7.210  0.315E+00  0.105E+00  0.105E+00  0.105E+00
  7.220  0.313E+00  0.104E+00  0.104E+00  0.104E+00
  7.230  0.312E+00  0.104E+00  0.104E+00  0.104E+00
  7.240  0.310E+00  0.103E+00  0.103E+00  0.103E+00
  7.250  0.308E+00  0.103E+00  0.103E+00  0.103E+00
  7.260  0.307E+00  0.102E+00  0.102E+00  0.102E+00
  7.270  0.305E+00  0.102E+00  0.102E+00  0.102E+00
  7.280  0.303E+00  0.101E+00  0.101E+00  0.101E+00
  7.290  0.301E+00  0.100E+00  0.100E+00  0.100E+00
  7.300  0.299E+00  0.996E-01  0.996E-01  0.996E-01
  7.310  0.297E+00  0.989E-01  0.989E-01  0.989E-01
  7.320  0.295E+00  0.982E-01  0.982E-01  0.982E-01
  7.330  0.292E+00  0.975E-01  0.975E-01  0.975E-01
  7.340  0.290E+00  0.968E-01  0.968E-01  0.968E-01
  7.350  0.289E+00  0.962E-01  0.962E-01  0.962E-01
  7.360  0.287E+00  0.956E-01  0.956E-01  0.956E-01
  7.370  0.285E+00  0.951E-01  0.951E-01  0.951E-01
  7.380  0.284E+00  0.946E-01  0.946E-01  0.946E-01
  7.390  0.283E+00  0.943E-01  0.943E-01  0.943E-01
  7.400  0.282E+00  0.940E-01  0.940E-01  0.940E-01
  7.410  0.282E+00  0.938E-01  0.938E-01  0.938E-01
  7.420  0.281E+00  0.937E-01  0.937E-01  0.937E-01
  7.430  0.281E+00  0.937E-01  0.937E-01  0.937E-01
  7.440  0.281E+00  0.937E-01  0.937E-01  0.937E-01
  7.450  0.281E+00  0.937E-01  0.937E-01  0.937E-01
  7.460  0.281E+00  0.937E-01  0.937E-01  0.937E-01
  7.470  0.281E+00  0.938E-01  0.938E-01  0.938E-01
  7.480  0.281E+00  0.938E-01  0.938E-01  0.938E-01
  7.490  0.281E+00  0.937E-01  0.937E-01  0.937E-01
  7.500  0.281E+00  0.936E-01  0.936E-01  0.936E-01
  7.510  0.280E+00  0.934E-01  0.934E-01  0.934E-01
  7.520  0.279E+00  0.931E-01  0.931E-01  0.931E-01
  7.530  0.278E+00  0.928E-01  0.928E-01  0.928E-01
  7.540  0.277E+00  0.923E-01  0.923E-01  0.923E-01
  7.550  0.275E+00  0.918E-01  0.918E-01  0.918E-01
  7.560  0.274E+00  0.912E-01  0.912E-01  0.912E-01
  7.570  0.272E+00  0.905E-01  0.905E-01  0.905E-01
  7.580  0.269E+00  0.898E-01  0.898E-01  0.898E-01
  7.590  0.267E+00  0.891E-01  0.891E-01  0.891E-01
  7.600  0.265E+00  0.883E-01  0.883E-01  0.883E-01
  7.610  0.263E+00  0.876E-01  0.876E-01  0.876E-01
  7.620  0.261E+00  0.869E-01  0.869E-01  0.869E-01
  7.630  0.258E+00  0.862E-01  0.862E-01  0.862E-01
  7.640  0.256E+00  0.855E-01  0.855E-01  0.855E-01
  7.650  0.255E+00  0.849E-01  0.849E-01  0.849E-01
  7.660  0.253E+00  0.843E-01  0.843E-01  0.843E-01
  7.670  0.251E+00  0.837E-01  0.837E-01  0.837E-01
  7.680  0.250E+00  0.833E-01  0.833E-01  0.833E-01
  7.690  0.249E+00  0.829E-01  0.829E-01  0.829E-01
  7.700  0.247E+00  0.825E-01  0.825E-01  0.825E-01
  7.710  0.247E+00  0.822E-01  0.822E-01  0.822E-01
  7.720  0.246E+00  0.819E-01  0.819E-01  0.819E-01
  7.730  0.245E+00  0.816E-01  0.816E-01  0.816E-01
  7.740  0.244E+00  0.814E-01  0.814E-01  0.814E-01
  7.750  0.243E+00  0.812E-01  0.812E-01  0.812E-01
  7.760  0.243E+00  0.809E-01  0.809E-01  0.809E-01
  7.770  0.242E+00  0.807E-01  0.807E-01  0.807E-01
  7.780  0.241E+00  0.805E-01  0.805E-01  0.805E-01
  7.790  0.241E+00  0.802E-01  0.802E-01  0.802E-01
  7.800  0.240E+00  0.800E-01  0.800E-01  0.800E-01
  7.810  0.239E+00  0.797E-01  0.797E-01  0.797E-01
  7.820  0.238E+00  0.794E-01  0.794E-01  0.794E-01
  7.830  0.237E+00  0.790E-01  0.790E-01  0.790E-01
  7.840  0.236E+00  0.787E-01  0.787E-01  0.787E-01
  7.850  0.235E+00  0.782E-01  0.782E-01  0.782E-01
  7.860  0.233E+00  0.778E-01  0.778E-01  0.778E-01
  7.870  0.232E+00  0.773E-01  0.773E-01  0.773E-01
  7.880  0.231E+00  0.769E-01  0.769E-01  0.769E-01
  7.890  0.229E+00  0.764E-01  0.764E-01  0.764E-01
  7.900  0.227E+00  0.758E-01  0.758E-01  0.758E-01
  7.910  0.226E+00  0.753E-01  0.753E-01  0.753E-01
  7.920  0.224E+00  0.747E-01  0.747E-01  0.747E-01
  7.930  0.223E+00  0.742E-01  0.742E-01  0.742E-01
  7.940  0.221E+00  0.736E-01  0.736E-01  0.736E-01
  7.950  0.219E+00  0.731E-01  0.731E-01  0.731E-01
  7.960  0.218E+00  0.725E-01  0.725E-01  0.725E-01
  7.970  0.216E+00  0.720E-01  0.720E-01  0.720E-01
  7.980  0.214E+00  0.715E-01  0.715E-01  0.715E-01
  7.990  0.213E+00  0.710E-01  0.710E-01  0.710E-01
  8.000  0.211E+00  0.705E-01  0.705E-01  0.705E-01
  8.010  0.210E+00  0.700E-01  0.700E-01  0.700E-01
  8.020  0.208E+00  0.695E-01  0.695E-01  0.695E-01
  8.030  0.207E+00  0.690E-01  0.690E-01  0.690E-01
  8.040  0.206E+00  0.685E-01  0.685E-01  0.685E-01
  8.050  0.204E+00  0.680E-01  0.680E-01  0.680E-01
  8.060  0.203E+00  0.675E-01  0.675E-01  0.675E-01
  8.070  0.201E+00  0.670E-01  0.670E-01  0.670E-01
  8.080  0.199E+00  0.664E-01  0.664E-01  0.664E-01
  8.090  0.197E+00  0.658E-01  0.658E-01  0.658E-01
  8.100  0.196E+00  0.652E-01  0.652E-01  0.652E-01
  8.110  0.193E+00  0.645E-01  0.645E-01  0.645E-01
  8.120  0.191E+00  0.637E-01  0.637E-01  0.637E-01
  8.130  0.189E+00  0.629E-01  0.629E-01  0.629E-01
  8.140  0.186E+00  0.620E-01  0.620E-01  0.620E-01
  8.150  0.183E+00  0.611E-01  0.611E-01  0.611E-01
  8.160  0.180E+00  0.601E-01  0.601E-01  0.601E-01
  8.170  0.177E+00  0.591E-01  0.591E-01  0.591E-01
  8.180  0.174E+00  0.580E-01  0.580E-01  0.580E-01
  8.190  0.170E+00  0.568E-01  0.568E-01  0.568E-01
  8.200  0.167E+00  0.556E-01  0.556E-01  0.556E-01
  8.210  0.163E+00  0.543E-01  0.543E-01  0.543E-01
  8.220  0.159E+00  0.531E-01  0.531E-01  0.531E-01
  8.230  0.155E+00  0.518E-01  0.518E-01  0.518E-01
  8.240  0.151E+00  0.505E-01  0.505E-01  0.505E-01
  8.250  0.147E+00  0.491E-01  0.491E-01  0.491E-01
  8.260  0.143E+00  0.478E-01  0.478E-01  0.478E-01
  8.270  0.139E+00  0.465E-01  0.465E-01  0.465E-01
  8.280  0.136E+00  0.452E-01  0.452E-01  0.452E-01
  8.290  0.132E+00  0.439E-01  0.439E-01  0.439E-01
  8.300  0.128E+00  0.426E-01  0.426E-01  0.426E-01
  8.310  0.124E+00  0.414E-01  0.414E-01  0.414E-01
  8.320  0.120E+00  0.402E-01  0.402E-01  0.402E-01
  8.330  0.117E+00  0.390E-01  0.390E-01  0.390E-01
  8.340  0.113E+00  0.378E-01  0.378E-01  0.378E-01
  8.350  0.110E+00  0.366E-01  0.366E-01  0.366E-01
  8.360  0.107E+00  0.355E-01  0.355E-01  0.355E-01
  8.370  0.103E+00  0.345E-01  0.345E-01  0.345E-01
  8.380  0.100E+00  0.334E-01  0.334E-01  0.334E-01
  8.390  0.971E-01  0.324E-01  0.324E-01  0.324E-01
  8.400  0.941E-01  0.314E-01  0.314E-01  0.314E-01
  8.410  0.912E-01  0.304E-01  0.304E-01  0.304E-01
  8.420  0.884E-01  0.295E-01  0.295E-01  0.295E-01
  8.430  0.857E-01  0.286E-01  0.286E-01  0.286E-01
  8.440  0.830E-01  0.277E-01  0.277E-01  0.277E-01
  8.450  0.804E-01  0.268E-01  0.268E-01  0.268E-01
  8.460  0.779E-01  0.260E-01  0.260E-01  0.260E-01
  8.470  0.755E-01  0.252E-01  0.252E-01  0.252E-01
  8.480  0.731E-01  0.244E-01  0.244E-01  0.244E-01
  8.490  0.708E-01  0.236E-01  0.236E-01  0.236E-01
  8.500  0.686E-01  0.229E-01  0.229E-01  0.229E-01
  8.510  0.665E-01  0.222E-01  0.222E-01  0.222E-01
  8.520  0.644E-01  0.215E-01  0.215E-01  0.215E-01
  8.530  0.624E-01  0.208E-01  0.208E-01  0.208E-01
  8.540  0.605E-01  0.202E-01  0.202E-01  0.202E-01
  8.550  0.586E-01  0.195E-01  0.195E-01  0.195E-01
  8.560  0.567E-01  0.189E-01  0.189E-01  0.189E-01
  8.570  0.549E-01  0.183E-01  0.183E-01  0.183E-01
  8.580  0.531E-01  0.177E-01  0.177E-01  0.177E-01
  8.590  0.514E-01  0.171E-01  0.171E-01  0.171E-01
  8.600  0.497E-01  0.166E-01  0.166E-01  0.166E-01
  8.610  0.480E-01  0.160E-01  0.160E-01  0.160E-01
  8.620  0.464E-01  0.155E-01  0.155E-01  0.155E-01
  8.630  0.448E-01  0.149E-01  0.149E-01  0.149E-01
  8.640  0.432E-01  0.144E-01  0.144E-01  0.144E-01
  8.650  0.416E-01  0.139E-01  0.139E-01  0.139E-01
  8.660  0.401E-01  0.134E-01  0.134E-01  0.134E-01
  8.670  0.386E-01  0.129E-01  0.129E-01  0.129E-01
  8.680  0.371E-01  0.124E-01  0.124E-01  0.124E-01
  8.690  0.356E-01  0.119E-01  0.119E-01  0.119E-01
  8.700  0.342E-01  0.114E-01  0.114E-01  0.114E-01
  8.710  0.328E-01  0.109E-01  0.109E-01  0.109E-01
  8.720  0.314E-01  0.105E-01  0.105E-01  0.105E-01
  8.730  0.301E-01  0.100E-01  0.100E-01  0.100E-01
  8.740  0.288E-01  0.960E-02  0.960E-02  0.960E-02
  8.750  0.275E-01  0.917E-02  0.917E-02  0.917E-02
  8.760  0.263E-01  0.875E-02  0.875E-02  0.875E-02
  8.770  0.250E-01  0.834E-02  0.834E-02  0.834E-02
  8.780  0.238E-01  0.794E-02  0.794E-02  0.794E-02
  8.790  0.227E-01  0.756E-02  0.756E-02  0.756E-02
  8.800  0.215E-01  0.717E-02  0.717E-02  0.717E-02
  8.810  0.204E-01  0.680E-02  0.680E-02  0.680E-02
  8.820  0.193E-01  0.644E-02  0.644E-02  0.644E-02
  8.830  0.183E-01  0.608E-02  0.608E-02  0.608E-02
  8.840  0.172E-01  0.574E-02  0.574E-02  0.574E-02
  8.850  0.162E-01  0.540E-02  0.540E-02  0.540E-02
  8.860  0.152E-01  0.507E-02  0.507E-02  0.507E-02
  8.870  0.142E-01  0.475E-02  0.475E-02  0.475E-02
  8.880  0.133E-01  0.443E-02  0.443E-02  0.443E-02
  8.890  0.124E-01  0.413E-02  0.413E-02  0.413E-02
  8.900  0.115E-01  0.383E-02  0.383E-02  0.383E-02
  8.910  0.106E-01  0.354E-02  0.354E-02  0.354E-02
  8.920  0.980E-02  0.327E-02  0.327E-02  0.327E-02
  8.930  0.900E-02  0.300E-02  0.300E-02  0.300E-02
  8.940  0.823E-02  0.274E-02  0.274E-02  0.274E-02
  8.950  0.750E-02  0.250E-02  0.250E-02  0.250E-02
  8.960  0.680E-02  0.227E-02  0.227E-02  0.227E-02
  8.970  0.614E-02  0.205E-02  0.205E-02  0.205E-02
  8.980  0.552E-02  0.184E-02  0.184E-02  0.184E-02
  8.990  0.493E-02  0.164E-02  0.164E-02  0.164E-02
  9.000  0.439E-02  0.146E-02  0.146E-02  0.146E-02
  9.010  0.388E-02  0.129E-02  0.129E-02  0.129E-02
  9.020  0.341E-02  0.114E-02  0.114E-02  0.114E-02
  9.030  0.299E-02  0.996E-03  0.996E-03  0.996E-03
  9.040  0.260E-02  0.866E-03  0.866E-03  0.866E-03
  9.050  0.225E-02  0.749E-03  0.749E-03  0.749E-03
  9.060  0.193E-02  0.643E-03  0.643E-03  0.643E-03
  9.070  0.165E-02  0.550E-03  0.550E-03  0.550E-03
  9.080  0.140E-02  0.468E-03  0.468E-03  0.468E-03
  9.090  0.119E-02  0.396E-03  0.396E-03  0.396E-03
  9.100  0.100E-02  0.333E-03  0.333E-03  0.333E-03
  9.110  0.840E-03  0.280E-03  0.280E-03  0.280E-03
  9.120  0.705E-03  0.235E-03  0.235E-03  0.235E-03
  9.130  0.592E-03  0.197E-03  0.197E-03  0.197E-03
  9.140  0.500E-03  0.167E-03  0.167E-03  0.167E-03
  9.150  0.426E-03  0.142E-03  0.142E-03  0.142E-03
  9.160  0.367E-03  0.122E-03  0.122E-03  0.122E-03
  9.170  0.323E-03  0.108E-03  0.108E-03  0.108E-03
  9.180  0.291E-03  0.971E-04  0.971E-04  0.971E-04
  9.190  0.270E-03  0.900E-04  0.900E-04  0.900E-04
  9.200  0.257E-03  0.857E-04  0.857E-04  0.857E-04
  9.210  0.252E-03  0.839E-04  0.839E-04  0.839E-04
  9.220  0.252E-03  0.840E-04  0.840E-04  0.840E-04
  9.230  0.257E-03  0.857E-04  0.857E-04  0.857E-04
  9.240  0.266E-03  0.885E-04  0.885E-04  0.885E-04
  9.250  0.277E-03  0.922E-04  0.922E-04  0.922E-04
  9.260  0.289E-03  0.964E-04  0.964E-04  0.964E-04
  9.270  0.303E-03  0.101E-03  0.101E-03  0.101E-03
  9.280  0.316E-03  0.105E-03  0.105E-03  0.105E-03
  9.290  0.329E-03  0.110E-03  0.110E-03  0.110E-03
  9.300  0.341E-03  0.114E-03  0.114E-03  0.114E-03
  9.310  0.352E-03  0.117E-03  0.117E-03  0.117E-03
  9.320  0.362E-03  0.121E-03  0.121E-03  0.121E-03
  9.330  0.370E-03  0.123E-03  0.123E-03  0.123E-03
  9.340  0.377E-03  0.126E-03  0.126E-03  0.126E-03
  9.350  0.383E-03  0.128E-03  0.128E-03  0.128E-03
  9.360  0.387E-03  0.129E-03  0.129E-03  0.129E-03
  9.370  0.392E-03  0.131E-03  0.131E-03  0.131E-03
  9.380  0.396E-03  0.132E-03  0.132E-03  0.132E-03
  9.390  0.400E-03  0.133E-03  0.133E-03  0.133E-03
  9.400  0.405E-03  0.135E-03  0.135E-03  0.135E-03
  9.410  0.412E-03  0.137E-03  0.137E-03  0.137E-03
  9.420  0.421E-03  0.140E-03  0.140E-03  0.140E-03
  9.430  0.433E-03  0.144E-03  0.144E-03  0.144E-03
  9.440  0.448E-03  0.149E-03  0.149E-03  0.149E-03
  9.450  0.467E-03  0.156E-03  0.156E-03  0.156E-03
  9.460  0.490E-03  0.163E-03  0.163E-03  0.163E-03
  9.470  0.517E-03  0.172E-03  0.172E-03  0.172E-03
  9.480  0.550E-03  0.183E-03  0.183E-03  0.183E-03
  9.490  0.588E-03  0.196E-03  0.196E-03  0.196E-03
  9.500  0.631E-03  0.210E-03  0.210E-03  0.210E-03
  9.510  0.680E-03  0.227E-03  0.227E-03  0.227E-03
  9.520  0.734E-03  0.245E-03  0.245E-03  0.245E-03
  9.530  0.793E-03  0.264E-03  0.264E-03  0.264E-03
  9.540  0.858E-03  0.286E-03  0.286E-03  0.286E-03
  9.550  0.928E-03  0.309E-03  0.309E-03  0.309E-03
  9.560  0.100E-02  0.334E-03  0.334E-03  0.334E-03
  9.570  0.108E-02  0.361E-03  0.361E-03  0.361E-03
  9.580  0.117E-02  0.389E-03  0.389E-03  0.389E-03
  9.590  0.125E-02  0.418E-03  0.418E-03  0.418E-03
  9.600  0.134E-02  0.448E-03  0.448E-03  0.448E-03
  9.610  0.143E-02  0.478E-03  0.478E-03  0.478E-03
  9.620  0.153E-02  0.509E-03  0.509E-03  0.509E-03
  9.630  0.162E-02  0.540E-03  0.540E-03  0.540E-03
  9.640  0.171E-02  0.569E-03  0.569E-03  0.569E-03
  9.650  0.179E-02  0.598E-03  0.598E-03  0.598E-03
  9.660  0.188E-02  0.625E-03  0.625E-03  0.625E-03
  9.670  0.195E-02  0.650E-03  0.650E-03  0.650E-03
  9.680  0.201E-02  0.671E-03  0.671E-03  0.671E-03
  9.690  0.207E-02  0.690E-03  0.690E-03  0.690E-03
  9.700  0.211E-02  0.704E-03  0.704E-03  0.704E-03
  9.710  0.214E-02  0.715E-03  0.715E-03  0.715E-03
  9.720  0.216E-02  0.722E-03  0.722E-03  0.722E-03
  9.730  0.217E-02  0.724E-03  0.724E-03  0.724E-03
  9.740  0.217E-02  0.724E-03  0.724E-03  0.724E-03
  9.750  0.216E-02  0.720E-03  0.720E-03  0.720E-03
  9.760  0.214E-02  0.714E-03  0.714E-03  0.714E-03
  9.770  0.212E-02  0.707E-03  0.707E-03  0.707E-03
  9.780  0.210E-02  0.700E-03  0.700E-03  0.700E-03
  9.790  0.208E-02  0.694E-03  0.694E-03  0.694E-03
  9.800  0.207E-02  0.690E-03  0.690E-03  0.690E-03
  9.810  0.207E-02  0.690E-03  0.690E-03  0.690E-03
  9.820  0.209E-02  0.696E-03  0.696E-03  0.696E-03
  9.830  0.212E-02  0.707E-03  0.707E-03  0.707E-03
  9.840  0.218E-02  0.726E-03  0.726E-03  0.726E-03
  9.850  0.226E-02  0.752E-03  0.752E-03  0.752E-03
  9.860  0.236E-02  0.787E-03  0.787E-03  0.787E-03
  9.870  0.249E-02  0.831E-03  0.831E-03  0.831E-03
  9.880  0.265E-02  0.882E-03  0.882E-03  0.882E-03
  9.890  0.283E-02  0.942E-03  0.942E-03  0.942E-03
  9.900  0.303E-02  0.101E-02  0.101E-02  0.101E-02
  9.910  0.325E-02  0.108E-02  0.108E-02  0.108E-02
  9.920  0.348E-02  0.116E-02  0.116E-02  0.116E-02
  9.930  0.373E-02  0.124E-02  0.124E-02  0.124E-02
  9.940  0.399E-02  0.133E-02  0.133E-02  0.133E-02
  9.950  0.424E-02  0.141E-02  0.141E-02  0.141E-02
  9.960  0.450E-02  0.150E-02  0.150E-02  0.150E-02
  9.970  0.475E-02  0.158E-02  0.158E-02  0.158E-02
  9.980  0.499E-02  0.166E-02  0.166E-02  0.166E-02
  9.990  0.522E-02  0.174E-02  0.174E-02  0.174E-02
 10.000  0.542E-02  0.181E-02  0.181E-02  0.181E-02
 10.010  0.561E-02  0.187E-02  0.187E-02  0.187E-02
 10.020  0.578E-02  0.193E-02  0.193E-02  0.193E-02
 10.030  0.591E-02  0.197E-02  0.197E-02  0.197E-02
 10.040  0.603E-02  0.201E-02  0.201E-02  0.201E-02
 10.050  0.611E-02  0.204E-02  0.204E-02  0.204E-02
 10.060  0.617E-02  0.206E-02  0.206E-02  0.206E-02
 10.070  0.621E-02  0.207E-02  0.207E-02  0.207E-02
 10.080  0.622E-02  0.207E-02  0.207E-02  0.207E-02
 10.090  0.621E-02  0.207E-02  0.207E-02  0.207E-02
 10.100  0.619E-02  0.206E-02  0.206E-02  0.206E-02
 10.110  0.615E-02  0.205E-02  0.205E-02  0.205E-02
 10.120  0.610E-02  0.203E-02  0.203E-02  0.203E-02
 10.130  0.605E-02  0.202E-02  0.202E-02  0.202E-02
 10.140  0.601E-02  0.200E-02  0.200E-02  0.200E-02
 10.150  0.597E-02  0.199E-02  0.199E-02  0.199E-02
 10.160  0.596E-02  0.199E-02  0.199E-02  0.199E-02
 10.170  0.596E-02  0.199E-02  0.199E-02  0.199E-02
 10.180  0.599E-02  0.200E-02  0.200E-02  0.200E-02
 10.190  0.606E-02  0.202E-02  0.202E-02  0.202E-02
 10.200  0.617E-02  0.206E-02  0.206E-02  0.206E-02
 10.210  0.631E-02  0.210E-02  0.210E-02  0.210E-02
 10.220  0.650E-02  0.217E-02  0.217E-02  0.217E-02
 10.230  0.674E-02  0.225E-02  0.225E-02  0.225E-02
 10.240  0.702E-02  0.234E-02  0.234E-02  0.234E-02
 10.250  0.734E-02  0.245E-02  0.245E-02  0.245E-02
 10.260  0.770E-02  0.257E-02  0.257E-02  0.257E-02
 10.270  0.810E-02  0.270E-02  0.270E-02  0.270E-02
 10.280  0.852E-02  0.284E-02  0.284E-02  0.284E-02
 10.290  0.897E-02  0.299E-02  0.299E-02  0.299E-02
 10.300  0.943E-02  0.314E-02  0.314E-02  0.314E-02
 10.310  0.989E-02  0.330E-02  0.330E-02  0.330E-02
 10.320  0.104E-01  0.345E-02  0.345E-02  0.345E-02
 10.330  0.108E-01  0.360E-02  0.360E-02  0.360E-02
 10.340  0.112E-01  0.374E-02  0.374E-02  0.374E-02
 10.350  0.116E-01  0.388E-02  0.388E-02  0.388E-02
 10.360  0.120E-01  0.400E-02  0.400E-02  0.400E-02
 10.370  0.123E-01  0.411E-02  0.411E-02  0.411E-02
 10.380  0.126E-01  0.421E-02  0.421E-02  0.421E-02
 10.390  0.129E-01  0.430E-02  0.430E-02  0.430E-02
 10.400  0.131E-01  0.437E-02  0.437E-02  0.437E-02
 10.410  0.133E-01  0.442E-02  0.442E-02  0.442E-02
 10.420  0.134E-01  0.446E-02  0.446E-02  0.446E-02
 10.430  0.135E-01  0.449E-02  0.449E-02  0.449E-02
 10.440  0.135E-01  0.451E-02  0.451E-02  0.451E-02
 10.450  0.136E-01  0.452E-02  0.452E-02  0.452E-02
 10.460  0.136E-01  0.453E-02  0.453E-02  0.453E-02
 10.470  0.136E-01  0.453E-02  0.453E-02  0.453E-02
 10.480  0.136E-01  0.452E-02  0.452E-02  0.452E-02
 10.490  0.135E-01  0.452E-02  0.452E-02  0.452E-02
 10.500  0.135E-01  0.451E-02  0.451E-02  0.451E-02
 10.510  0.135E-01  0.451E-02  0.451E-02  0.451E-02
 10.520  0.135E-01  0.451E-02  0.451E-02  0.451E-02
 10.530  0.136E-01  0.452E-02  0.452E-02  0.452E-02
 10.540  0.136E-01  0.453E-02  0.453E-02  0.453E-02
 10.550  0.137E-01  0.456E-02  0.456E-02  0.456E-02
 10.560  0.138E-01  0.459E-02  0.459E-02  0.459E-02
 10.570  0.139E-01  0.464E-02  0.464E-02  0.464E-02
 10.580  0.141E-01  0.470E-02  0.470E-02  0.470E-02
 10.590  0.143E-01  0.477E-02  0.477E-02  0.477E-02
 10.600  0.146E-01  0.486E-02  0.486E-02  0.486E-02
 10.610  0.149E-01  0.497E-02  0.497E-02  0.497E-02
 10.620  0.153E-01  0.510E-02  0.510E-02  0.510E-02
 10.630  0.157E-01  0.524E-02  0.524E-02  0.524E-02
 10.640  0.162E-01  0.541E-02  0.541E-02  0.541E-02
 10.650  0.168E-01  0.559E-02  0.559E-02  0.559E-02
 10.660  0.174E-01  0.579E-02  0.579E-02  0.579E-02
 10.670  0.180E-01  0.600E-02  0.600E-02  0.600E-02
 10.680  0.187E-01  0.623E-02  0.623E-02  0.623E-02
 10.690  0.194E-01  0.647E-02  0.647E-02  0.647E-02
 10.700  0.202E-01  0.672E-02  0.672E-02  0.672E-02
 10.710  0.209E-01  0.697E-02  0.697E-02  0.697E-02
 10.720  0.217E-01  0.722E-02  0.722E-02  0.722E-02
 10.730  0.224E-01  0.747E-02  0.747E-02  0.747E-02
 10.740  0.231E-01  0.771E-02  0.771E-02  0.771E-02
 10.750  0.238E-01  0.793E-02  0.793E-02  0.793E-02
 10.760  0.244E-01  0.813E-02  0.813E-02  0.813E-02
 10.770  0.249E-01  0.831E-02  0.831E-02  0.831E-02
 10.780  0.254E-01  0.847E-02  0.847E-02  0.847E-02
 10.790  0.258E-01  0.860E-02  0.860E-02  0.860E-02
 10.800  0.261E-01  0.870E-02  0.870E-02  0.870E-02
 10.810  0.263E-01  0.878E-02  0.878E-02  0.878E-02
 10.820  0.265E-01  0.882E-02  0.882E-02  0.882E-02
 10.830  0.265E-01  0.884E-02  0.884E-02  0.884E-02
 10.840  0.265E-01  0.884E-02  0.884E-02  0.884E-02
 10.850  0.264E-01  0.881E-02  0.881E-02  0.881E-02
 10.860  0.263E-01  0.877E-02  0.877E-02  0.877E-02
 10.870  0.261E-01  0.871E-02  0.871E-02  0.871E-02
 10.880  0.259E-01  0.864E-02  0.864E-02  0.864E-02
 10.890  0.257E-01  0.856E-02  0.856E-02  0.856E-02
 10.900  0.255E-01  0.849E-02  0.849E-02  0.849E-02
 10.910  0.253E-01  0.842E-02  0.842E-02  0.842E-02
 10.920  0.251E-01  0.836E-02  0.836E-02  0.836E-02
 10.930  0.250E-01  0.832E-02  0.832E-02  0.832E-02
 10.940  0.249E-01  0.830E-02  0.830E-02  0.830E-02
 10.950  0.249E-01  0.831E-02  0.831E-02  0.831E-02
 10.960  0.251E-01  0.835E-02  0.835E-02  0.835E-02
 10.970  0.253E-01  0.844E-02  0.844E-02  0.844E-02
 10.980  0.257E-01  0.856E-02  0.856E-02  0.856E-02
 10.990  0.262E-01  0.874E-02  0.874E-02  0.874E-02
 11.000  0.269E-01  0.896E-02  0.896E-02  0.896E-02
 11.010  0.277E-01  0.923E-02  0.923E-02  0.923E-02
 11.020  0.287E-01  0.955E-02  0.955E-02  0.955E-02
 11.030  0.298E-01  0.992E-02  0.992E-02  0.992E-02
 11.040  0.310E-01  0.103E-01  0.103E-01  0.103E-01
 11.050  0.323E-01  0.108E-01  0.108E-01  0.108E-01
 11.060  0.337E-01  0.112E-01  0.112E-01  0.112E-01
 11.070  0.351E-01  0.117E-01  0.117E-01  0.117E-01
 11.080  0.365E-01  0.122E-01  0.122E-01  0.122E-01
 11.090  0.379E-01  0.126E-01  0.126E-01  0.126E-01
 11.100  0.393E-01  0.131E-01  0.131E-01  0.131E-01
 11.110  0.406E-01  0.135E-01  0.135E-01  0.135E-01
 11.120  0.417E-01  0.139E-01  0.139E-01  0.139E-01
 11.130  0.427E-01  0.142E-01  0.142E-01  0.142E-01
 11.140  0.436E-01  0.145E-01  0.145E-01  0.145E-01
 11.150  0.442E-01  0.147E-01  0.147E-01  0.147E-01
 11.160  0.447E-01  0.149E-01  0.149E-01  0.149E-01
 11.170  0.450E-01  0.150E-01  0.150E-01  0.150E-01
 11.180  0.451E-01  0.150E-01  0.150E-01  0.150E-01
 11.190  0.451E-01  0.150E-01  0.150E-01  0.150E-01
 11.200  0.449E-01  0.150E-01  0.150E-01  0.150E-01
 11.210  0.446E-01  0.149E-01  0.149E-01  0.149E-01
 11.220  0.443E-01  0.148E-01  0.148E-01  0.148E-01
 11.230  0.438E-01  0.146E-01  0.146E-01  0.146E-01
 11.240  0.434E-01  0.145E-01  0.145E-01  0.145E-01
 11.250  0.429E-01  0.143E-01  0.143E-01  0.143E-01
 11.260  0.425E-01  0.142E-01  0.142E-01  0.142E-01
 11.270  0.422E-01  0.141E-01  0.141E-01  0.141E-01
 11.280  0.419E-01  0.140E-01  0.140E-01  0.140E-01
 11.290  0.417E-01  0.139E-01  0.139E-01  0.139E-01
 11.300  0.417E-01  0.139E-01  0.139E-01  0.139E-01
 11.310  0.419E-01  0.140E-01  0.140E-01  0.140E-01
 11.320  0.421E-01  0.140E-01  0.140E-01  0.140E-01
 11.330  0.426E-01  0.142E-01  0.142E-01  0.142E-01
 11.340  0.433E-01  0.144E-01  0.144E-01  0.144E-01
 11.350  0.441E-01  0.147E-01  0.147E-01  0.147E-01
 11.360  0.452E-01  0.151E-01  0.151E-01  0.151E-01
 11.370  0.464E-01  0.155E-01  0.155E-01  0.155E-01
 11.380  0.477E-01  0.159E-01  0.159E-01  0.159E-01
 11.390  0.492E-01  0.164E-01  0.164E-01  0.164E-01
 11.400  0.509E-01  0.170E-01  0.170E-01  0.170E-01
 11.410  0.526E-01  0.175E-01  0.175E-01  0.175E-01
 11.420  0.544E-01  0.181E-01  0.181E-01  0.181E-01
 11.430  0.562E-01  0.187E-01  0.187E-01  0.187E-01
 11.440  0.580E-01  0.193E-01  0.193E-01  0.193E-01
 11.450  0.598E-01  0.199E-01  0.199E-01  0.199E-01
 11.460  0.615E-01  0.205E-01  0.205E-01  0.205E-01
 11.470  0.631E-01  0.210E-01  0.210E-01  0.210E-01
 11.480  0.646E-01  0.215E-01  0.215E-01  0.215E-01
 11.490  0.660E-01  0.220E-01  0.220E-01  0.220E-01
 11.500  0.671E-01  0.224E-01  0.224E-01  0.224E-01
 11.510  0.681E-01  0.227E-01  0.227E-01  0.227E-01
 11.520  0.690E-01  0.230E-01  0.230E-01  0.230E-01
 11.530  0.697E-01  0.232E-01  0.232E-01  0.232E-01
 11.540  0.703E-01  0.234E-01  0.234E-01  0.234E-01
 11.550  0.707E-01  0.236E-01  0.236E-01  0.236E-01
 11.560  0.710E-01  0.237E-01  0.237E-01  0.237E-01
 11.570  0.713E-01  0.238E-01  0.238E-01  0.238E-01
 11.580  0.715E-01  0.238E-01  0.238E-01  0.238E-01
 11.590  0.716E-01  0.239E-01  0.239E-01  0.239E-01
 11.600  0.718E-01  0.239E-01  0.239E-01  0.239E-01
 11.610  0.720E-01  0.240E-01  0.240E-01  0.240E-01
 11.620  0.722E-01  0.241E-01  0.241E-01  0.241E-01
 11.630  0.725E-01  0.242E-01  0.242E-01  0.242E-01
 11.640  0.729E-01  0.243E-01  0.243E-01  0.243E-01
 11.650  0.734E-01  0.245E-01  0.245E-01  0.245E-01
 11.660  0.740E-01  0.247E-01  0.247E-01  0.247E-01
 11.670  0.747E-01  0.249E-01  0.249E-01  0.249E-01
 11.680  0.755E-01  0.252E-01  0.252E-01  0.252E-01
 11.690  0.765E-01  0.255E-01  0.255E-01  0.255E-01
 11.700  0.776E-01  0.259E-01  0.259E-01  0.259E-01
 11.710  0.789E-01  0.263E-01  0.263E-01  0.263E-01
 11.720  0.804E-01  0.268E-01  0.268E-01  0.268E-01
 11.730  0.821E-01  0.274E-01  0.274E-01  0.274E-01
 11.740  0.839E-01  0.280E-01  0.280E-01  0.280E-01
 11.750  0.860E-01  0.287E-01  0.287E-01  0.287E-01
 11.760  0.882E-01  0.294E-01  0.294E-01  0.294E-01
 11.770  0.907E-01  0.302E-01  0.302E-01  0.302E-01
 11.780  0.934E-01  0.311E-01  0.311E-01  0.311E-01
 11.790  0.964E-01  0.321E-01  0.321E-01  0.321E-01
 11.800  0.996E-01  0.332E-01  0.332E-01  0.332E-01
 11.810  0.103E+00  0.344E-01  0.344E-01  0.344E-01
 11.820  0.107E+00  0.356E-01  0.356E-01  0.356E-01
 11.830  0.111E+00  0.370E-01  0.370E-01  0.370E-01
 11.840  0.115E+00  0.384E-01  0.384E-01  0.384E-01
 11.850  0.120E+00  0.400E-01  0.400E-01  0.400E-01
 11.860  0.125E+00  0.416E-01  0.416E-01  0.416E-01
 11.870  0.130E+00  0.433E-01  0.433E-01  0.433E-01
 11.880  0.135E+00  0.451E-01  0.451E-01  0.451E-01
 11.890  0.141E+00  0.470E-01  0.470E-01  0.470E-01
 11.900  0.147E+00  0.489E-01  0.489E-01  0.489E-01
 11.910  0.153E+00  0.508E-01  0.508E-01  0.508E-01
 11.920  0.158E+00  0.528E-01  0.528E-01  0.528E-01
 11.930  0.165E+00  0.548E-01  0.548E-01  0.548E-01
 11.940  0.171E+00  0.568E-01  0.568E-01  0.568E-01
 11.950  0.176E+00  0.588E-01  0.588E-01  0.588E-01
 11.960  0.182E+00  0.608E-01  0.608E-01  0.608E-01
 11.970  0.188E+00  0.627E-01  0.627E-01  0.627E-01
 11.980  0.194E+00  0.646E-01  0.646E-01  0.646E-01
 11.990  0.199E+00  0.665E-01  0.665E-01  0.665E-01
 12.000  0.205E+00  0.683E-01  0.683E-01  0.683E-01
 12.010  0.210E+00  0.700E-01  0.700E-01  0.700E-01
 12.020  0.215E+00  0.717E-01  0.717E-01  0.717E-01
 12.030  0.220E+00  0.734E-01  0.734E-01  0.734E-01
 12.040  0.225E+00  0.750E-01  0.750E-01  0.750E-01
 12.050  0.230E+00  0.766E-01  0.766E-01  0.766E-01
 12.060  0.235E+00  0.782E-01  0.782E-01  0.782E-01
 12.070  0.239E+00  0.798E-01  0.798E-01  0.798E-01
 12.080  0.244E+00  0.813E-01  0.813E-01  0.813E-01
 12.090  0.249E+00  0.829E-01  0.829E-01  0.829E-01
 12.100  0.253E+00  0.845E-01  0.845E-01  0.845E-01
 12.110  0.258E+00  0.860E-01  0.860E-01  0.860E-01
 12.120  0.263E+00  0.876E-01  0.876E-01  0.876E-01
 12.130  0.267E+00  0.891E-01  0.891E-01  0.891E-01
 12.140  0.272E+00  0.906E-01  0.906E-01  0.906E-01
 12.150  0.276E+00  0.921E-01  0.921E-01  0.921E-01
 12.160  0.280E+00  0.935E-01  0.935E-01  0.935E-01
 12.170  0.284E+00  0.948E-01  0.948E-01  0.948E-01
 12.180  0.288E+00  0.960E-01  0.960E-01  0.960E-01
 12.190  0.291E+00  0.971E-01  0.971E-01  0.971E-01
 12.200  0.294E+00  0.981E-01  0.981E-01  0.981E-01
 12.210  0.297E+00  0.989E-01  0.989E-01  0.989E-01
 12.220  0.299E+00  0.995E-01  0.995E-01  0.995E-01
 12.230  0.300E+00  0.100E+00  0.100E+00  0.100E+00
 12.240  0.301E+00  0.100E+00  0.100E+00  0.100E+00
 12.250  0.302E+00  0.101E+00  0.101E+00  0.101E+00
 12.260  0.302E+00  0.101E+00  0.101E+00  0.101E+00
 12.270  0.302E+00  0.101E+00  0.101E+00  0.101E+00
 12.280  0.302E+00  0.101E+00  0.101E+00  0.101E+00
 12.290  0.302E+00  0.101E+00  0.101E+00  0.101E+00
 12.300  0.301E+00  0.100E+00  0.100E+00  0.100E+00
 12.310  0.300E+00  0.100E+00  0.100E+00  0.100E+00
 12.320  0.300E+00  0.999E-01  0.999E-01  0.999E-01
 12.330  0.299E+00  0.997E-01  0.997E-01  0.997E-01
 12.340  0.299E+00  0.996E-01  0.996E-01  0.996E-01
 12.350  0.299E+00  0.996E-01  0.996E-01  0.996E-01
 12.360  0.299E+00  0.996E-01  0.996E-01  0.996E-01
 12.370  0.299E+00  0.998E-01  0.998E-01  0.998E-01
 12.380  0.300E+00  0.100E+00  0.100E+00  0.100E+00
 12.390  0.301E+00  0.100E+00  0.100E+00  0.100E+00
 12.400  0.303E+00  0.101E+00  0.101E+00  0.101E+00
 12.410  0.305E+00  0.102E+00  0.102E+00  0.102E+00
 12.420  0.307E+00  0.102E+00  0.102E+00  0.102E+00
 12.430  0.309E+00  0.103E+00  0.103E+00  0.103E+00
 12.440  0.311E+00  0.104E+00  0.104E+00  0.104E+00
 12.450  0.313E+00  0.104E+00  0.104E+00  0.104E+00
 12.460  0.315E+00  0.105E+00  0.105E+00  0.105E+00
 12.470  0.316E+00  0.105E+00  0.105E+00  0.105E+00
 12.480  0.317E+00  0.106E+00  0.106E+00  0.106E+00
 12.490  0.318E+00  0.106E+00  0.106E+00  0.106E+00
 12.500  0.318E+00  0.106E+00  0.106E+00  0.106E+00
 12.510  0.318E+00  0.106E+00  0.106E+00  0.106E+00
 12.520  0.317E+00  0.106E+00  0.106E+00  0.106E+00
 12.530  0.316E+00  0.105E+00  0.105E+00  0.105E+00
 12.540  0.314E+00  0.105E+00  0.105E+00  0.105E+00
 12.550  0.311E+00  0.104E+00  0.104E+00  0.104E+00
 12.560  0.308E+00  0.103E+00  0.103E+00  0.103E+00
 12.570  0.305E+00  0.102E+00  0.102E+00  0.102E+00
 12.580  0.302E+00  0.101E+00  0.101E+00  0.101E+00
 12.590  0.298E+00  0.994E-01  0.994E-01  0.994E-01
 12.600  0.295E+00  0.983E-01  0.983E-01  0.983E-01
 12.610  0.292E+00  0.972E-01  0.972E-01  0.972E-01
 12.620  0.289E+00  0.964E-01  0.964E-01  0.964E-01
 12.630  0.287E+00  0.957E-01  0.957E-01  0.957E-01
 12.640  0.286E+00  0.953E-01  0.953E-01  0.953E-01
 12.650  0.285E+00  0.951E-01  0.951E-01  0.951E-01
 12.660  0.286E+00  0.952E-01  0.952E-01  0.952E-01
 12.670  0.287E+00  0.956E-01  0.956E-01  0.956E-01
 12.680  0.289E+00  0.963E-01  0.963E-01  0.963E-01
 12.690  0.292E+00  0.973E-01  0.973E-01  0.973E-01
 12.700  0.296E+00  0.986E-01  0.986E-01  0.986E-01
 12.710  0.300E+00  0.100E+00  0.100E+00  0.100E+00
 12.720  0.305E+00  0.102E+00  0.102E+00  0.102E+00
 12.730  0.310E+00  0.103E+00  0.103E+00  0.103E+00
 12.740  0.315E+00  0.105E+00  0.105E+00  0.105E+00
 12.750  0.320E+00  0.107E+00  0.107E+00  0.107E+00
 12.760  0.325E+00  0.108E+00  0.108E+00  0.108E+00
 12.770  0.329E+00  0.110E+00  0.110E+00  0.110E+00
 12.780  0.332E+00  0.111E+00  0.111E+00  0.111E+00
 12.790  0.334E+00  0.111E+00  0.111E+00  0.111E+00
 12.800  0.335E+00  0.112E+00  0.112E+00  0.112E+00
 12.810  0.335E+00  0.112E+00  0.112E+00  0.112E+00
 12.820  0.334E+00  0.111E+00  0.111E+00  0.111E+00
 12.830  0.331E+00  0.110E+00  0.110E+00  0.110E+00
 12.840  0.327E+00  0.109E+00  0.109E+00  0.109E+00
 12.850  0.323E+00  0.108E+00  0.108E+00  0.108E+00
 12.860  0.317E+00  0.106E+00  0.106E+00  0.106E+00
 12.870  0.311E+00  0.104E+00  0.104E+00  0.104E+00
 12.880  0.305E+00  0.102E+00  0.102E+00  0.102E+00
 12.890  0.298E+00  0.995E-01  0.995E-01  0.995E-01
 12.900  0.292E+00  0.974E-01  0.974E-01  0.974E-01
 12.910  0.286E+00  0.954E-01  0.954E-01  0.954E-01
 12.920  0.281E+00  0.937E-01  0.937E-01  0.937E-01
 12.930  0.277E+00  0.923E-01  0.923E-01  0.923E-01
 12.940  0.274E+00  0.913E-01  0.913E-01  0.913E-01
 12.950  0.272E+00  0.907E-01  0.907E-01  0.907E-01
 12.960  0.272E+00  0.905E-01  0.905E-01  0.905E-01
 12.970  0.272E+00  0.908E-01  0.908E-01  0.908E-01
 12.980  0.274E+00  0.914E-01  0.914E-01  0.914E-01
 12.990  0.277E+00  0.925E-01  0.925E-01  0.925E-01
 13.000  0.281E+00  0.938E-01  0.938E-01  0.938E-01
 13.010  0.286E+00  0.954E-01  0.954E-01  0.954E-01
 13.020  0.292E+00  0.972E-01  0.972E-01  0.972E-01
 13.030  0.297E+00  0.990E-01  0.990E-01  0.990E-01
 13.040  0.303E+00  0.101E+00  0.101E+00  0.101E+00
 13.050  0.308E+00  0.103E+00  0.103E+00  0.103E+00
 13.060  0.313E+00  0.104E+00  0.104E+00  0.104E+00
 13.070  0.317E+00  0.106E+00  0.106E+00  0.106E+00
 13.080  0.320E+00  0.107E+00  0.107E+00  0.107E+00
 13.090  0.322E+00  0.107E+00  0.107E+00  0.107E+00
 13.100  0.323E+00  0.108E+00  0.108E+00  0.108E+00
 13.110  0.323E+00  0.108E+00  0.108E+00  0.108E+00
 13.120  0.322E+00  0.107E+00  0.107E+00  0.107E+00
 13.130  0.320E+00  0.107E+00  0.107E+00  0.107E+00
 13.140  0.317E+00  0.106E+00  0.106E+00  0.106E+00
 13.150  0.313E+00  0.104E+00  0.104E+00  0.104E+00
 13.160  0.308E+00  0.103E+00  0.103E+00  0.103E+00
 13.170  0.303E+00  0.101E+00  0.101E+00  0.101E+00
 13.180  0.298E+00  0.994E-01  0.994E-01  0.994E-01
 13.190  0.293E+00  0.977E-01  0.977E-01  0.977E-01
 13.200  0.288E+00  0.961E-01  0.961E-01  0.961E-01
 13.210  0.284E+00  0.946E-01  0.946E-01  0.946E-01
 13.220  0.280E+00  0.932E-01  0.932E-01  0.932E-01
 13.230  0.276E+00  0.921E-01  0.921E-01  0.921E-01
 13.240  0.274E+00  0.912E-01  0.912E-01  0.912E-01
 13.250  0.272E+00  0.906E-01  0.906E-01  0.906E-01
 13.260  0.271E+00  0.903E-01  0.903E-01  0.903E-01
 13.270  0.271E+00  0.902E-01  0.902E-01  0.902E-01
 13.280  0.271E+00  0.904E-01  0.904E-01  0.904E-01
 13.290  0.272E+00  0.908E-01  0.908E-01  0.908E-01
 13.300  0.274E+00  0.914E-01  0.914E-01  0.914E-01
 13.310  0.276E+00  0.921E-01  0.921E-01  0.921E-01
 13.320  0.279E+00  0.929E-01  0.929E-01  0.929E-01
 13.330  0.281E+00  0.937E-01  0.937E-01  0.937E-01
 13.340  0.283E+00  0.945E-01  0.945E-01  0.945E-01
 13.350  0.286E+00  0.952E-01  0.952E-01  0.952E-01
 13.360  0.287E+00  0.958E-01  0.958E-01  0.958E-01
 13.370  0.289E+00  0.962E-01  0.962E-01  0.962E-01
 13.380  0.289E+00  0.964E-01  0.964E-01  0.964E-01
 13.390  0.289E+00  0.964E-01  0.964E-01  0.964E-01
 13.400  0.289E+00  0.962E-01  0.962E-01  0.962E-01
 13.410  0.288E+00  0.959E-01  0.959E-01  0.959E-01
 13.420  0.286E+00  0.953E-01  0.953E-01  0.953E-01
 13.430  0.284E+00  0.945E-01  0.945E-01  0.945E-01
 13.440  0.281E+00  0.936E-01  0.936E-01  0.936E-01
 13.450  0.278E+00  0.926E-01  0.926E-01  0.926E-01
 13.460  0.275E+00  0.916E-01  0.916E-01  0.916E-01
 13.470  0.272E+00  0.905E-01  0.905E-01  0.905E-01
 13.480  0.268E+00  0.895E-01  0.895E-01  0.895E-01
 13.490  0.265E+00  0.885E-01  0.885E-01  0.885E-01
 13.500  0.263E+00  0.876E-01  0.876E-01  0.876E-01
 13.510  0.261E+00  0.869E-01  0.869E-01  0.869E-01
 13.520  0.259E+00  0.863E-01  0.863E-01  0.863E-01
 13.530  0.258E+00  0.858E-01  0.858E-01  0.858E-01
 13.540  0.257E+00  0.856E-01  0.856E-01  0.856E-01
 13.550  0.257E+00  0.856E-01  0.856E-01  0.856E-01
 13.560  0.257E+00  0.857E-01  0.857E-01  0.857E-01
 13.570  0.258E+00  0.859E-01  0.859E-01  0.859E-01
 13.580  0.259E+00  0.863E-01  0.863E-01  0.863E-01
 13.590  0.260E+00  0.867E-01  0.867E-01  0.867E-01
 13.600  0.262E+00  0.872E-01  0.872E-01  0.872E-01
 13.610  0.263E+00  0.877E-01  0.877E-01  0.877E-01
 13.620  0.264E+00  0.881E-01  0.881E-01  0.881E-01
 13.630  0.265E+00  0.884E-01  0.884E-01  0.884E-01
 13.640  0.266E+00  0.885E-01  0.885E-01  0.885E-01
 13.650  0.266E+00  0.885E-01  0.885E-01  0.885E-01
 13.660  0.265E+00  0.883E-01  0.883E-01  0.883E-01
 13.670  0.263E+00  0.878E-01  0.878E-01  0.878E-01
 13.680  0.261E+00  0.871E-01  0.871E-01  0.871E-01
 13.690  0.259E+00  0.862E-01  0.862E-01  0.862E-01
 13.700  0.255E+00  0.851E-01  0.851E-01  0.851E-01
 13.710  0.252E+00  0.839E-01  0.839E-01  0.839E-01
 13.720  0.248E+00  0.825E-01  0.825E-01  0.825E-01
 13.730  0.243E+00  0.811E-01  0.811E-01  0.811E-01
 13.740  0.239E+00  0.796E-01  0.796E-01  0.796E-01
 13.750  0.235E+00  0.782E-01  0.782E-01  0.782E-01
 13.760  0.231E+00  0.769E-01  0.769E-01  0.769E-01
 13.770  0.227E+00  0.757E-01  0.757E-01  0.757E-01
 13.780  0.224E+00  0.748E-01  0.748E-01  0.748E-01
 13.790  0.222E+00  0.740E-01  0.740E-01  0.740E-01
 13.800  0.220E+00  0.734E-01  0.734E-01  0.734E-01
 13.810  0.219E+00  0.731E-01  0.731E-01  0.731E-01
 13.820  0.219E+00  0.730E-01  0.730E-01  0.730E-01
 13.830  0.219E+00  0.731E-01  0.731E-01  0.731E-01
 13.840  0.220E+00  0.734E-01  0.734E-01  0.734E-01
 13.850  0.222E+00  0.739E-01  0.739E-01  0.739E-01
 13.860  0.223E+00  0.744E-01  0.744E-01  0.744E-01
 13.870  0.225E+00  0.750E-01  0.750E-01  0.750E-01
 13.880  0.227E+00  0.757E-01  0.757E-01  0.757E-01
 13.890  0.229E+00  0.763E-01  0.763E-01  0.763E-01
 13.900  0.230E+00  0.768E-01  0.768E-01  0.768E-01
 13.910  0.231E+00  0.771E-01  0.771E-01  0.771E-01
 13.920  0.232E+00  0.774E-01  0.774E-01  0.774E-01
 13.930  0.232E+00  0.774E-01  0.774E-01  0.774E-01
 13.940  0.232E+00  0.773E-01  0.773E-01  0.773E-01
 13.950  0.231E+00  0.769E-01  0.769E-01  0.769E-01
 13.960  0.229E+00  0.763E-01  0.763E-01  0.763E-01
 13.970  0.227E+00  0.756E-01  0.756E-01  0.756E-01
 13.980  0.224E+00  0.746E-01  0.746E-01  0.746E-01
 13.990  0.221E+00  0.736E-01  0.736E-01  0.736E-01
 14.000  0.217E+00  0.724E-01  0.724E-01  0.724E-01
 14.010  0.213E+00  0.711E-01  0.711E-01  0.711E-01
 14.020  0.209E+00  0.698E-01  0.698E-01  0.698E-01
 14.030  0.206E+00  0.685E-01  0.685E-01  0.685E-01
 14.040  0.202E+00  0.673E-01  0.673E-01  0.673E-01
 14.050  0.198E+00  0.661E-01  0.661E-01  0.661E-01
 14.060  0.195E+00  0.651E-01  0.651E-01  0.651E-01
 14.070  0.193E+00  0.642E-01  0.642E-01  0.642E-01
 14.080  0.190E+00  0.634E-01  0.634E-01  0.634E-01
 14.090  0.188E+00  0.628E-01  0.628E-01  0.628E-01
 14.100  0.187E+00  0.623E-01  0.623E-01  0.623E-01
 14.110  0.186E+00  0.620E-01  0.620E-01  0.620E-01
 14.120  0.185E+00  0.618E-01  0.618E-01  0.618E-01
 14.130  0.185E+00  0.616E-01  0.616E-01  0.616E-01
 14.140  0.185E+00  0.615E-01  0.615E-01  0.615E-01
 14.150  0.184E+00  0.615E-01  0.615E-01  0.615E-01
 14.160  0.184E+00  0.614E-01  0.614E-01  0.614E-01
 14.170  0.184E+00  0.613E-01  0.613E-01  0.613E-01
 14.180  0.183E+00  0.611E-01  0.611E-01  0.611E-01
 14.190  0.182E+00  0.607E-01  0.607E-01  0.607E-01
 14.200  0.181E+00  0.602E-01  0.602E-01  0.602E-01
 14.210  0.179E+00  0.596E-01  0.596E-01  0.596E-01
 14.220  0.176E+00  0.587E-01  0.587E-01  0.587E-01
 14.230  0.173E+00  0.576E-01  0.576E-01  0.576E-01
 14.240  0.169E+00  0.564E-01  0.564E-01  0.564E-01
 14.250  0.165E+00  0.549E-01  0.549E-01  0.549E-01
 14.260  0.160E+00  0.533E-01  0.533E-01  0.533E-01
 14.270  0.155E+00  0.515E-01  0.515E-01  0.515E-01
 14.280  0.149E+00  0.496E-01  0.496E-01  0.496E-01
 14.290  0.143E+00  0.475E-01  0.475E-01  0.475E-01
 14.300  0.136E+00  0.454E-01  0.454E-01  0.454E-01
 14.310  0.130E+00  0.432E-01  0.432E-01  0.432E-01
 14.320  0.123E+00  0.410E-01  0.410E-01  0.410E-01
 14.330  0.117E+00  0.389E-01  0.389E-01  0.389E-01
 14.340  0.110E+00  0.367E-01  0.367E-01  0.367E-01
 14.350  0.104E+00  0.347E-01  0.347E-01  0.347E-01
 14.360  0.985E-01  0.328E-01  0.328E-01  0.328E-01
 14.370  0.933E-01  0.311E-01  0.311E-01  0.311E-01
 14.380  0.886E-01  0.295E-01  0.295E-01  0.295E-01
 14.390  0.846E-01  0.282E-01  0.282E-01  0.282E-01
 14.400  0.813E-01  0.271E-01  0.271E-01  0.271E-01
 14.410  0.788E-01  0.263E-01  0.263E-01  0.263E-01
 14.420  0.771E-01  0.257E-01  0.257E-01  0.257E-01
 14.430  0.764E-01  0.255E-01  0.255E-01  0.255E-01
 14.440  0.765E-01  0.255E-01  0.255E-01  0.255E-01
 14.450  0.776E-01  0.259E-01  0.259E-01  0.259E-01
 14.460  0.796E-01  0.265E-01  0.265E-01  0.265E-01
 14.470  0.826E-01  0.275E-01  0.275E-01  0.275E-01
 14.480  0.865E-01  0.288E-01  0.288E-01  0.288E-01
 14.490  0.914E-01  0.305E-01  0.305E-01  0.305E-01
 14.500  0.971E-01  0.324E-01  0.324E-01  0.324E-01
 14.510  0.104E+00  0.346E-01  0.346E-01  0.346E-01
 14.520  0.111E+00  0.370E-01  0.370E-01  0.370E-01
 14.530  0.119E+00  0.398E-01  0.398E-01  0.398E-01
 14.540  0.128E+00  0.427E-01  0.427E-01  0.427E-01
 14.550  0.138E+00  0.459E-01  0.459E-01  0.459E-01
 14.560  0.148E+00  0.493E-01  0.493E-01  0.493E-01
 14.570  0.159E+00  0.529E-01  0.529E-01  0.529E-01
 14.580  0.170E+00  0.567E-01  0.567E-01  0.567E-01
 14.590  0.182E+00  0.606E-01  0.606E-01  0.606E-01
 14.600  0.194E+00  0.646E-01  0.646E-01  0.646E-01
 14.610  0.206E+00  0.688E-01  0.688E-01  0.688E-01
 14.620  0.219E+00  0.730E-01  0.730E-01  0.730E-01
 14.630  0.232E+00  0.773E-01  0.773E-01  0.773E-01
 14.640  0.245E+00  0.817E-01  0.817E-01  0.817E-01
 14.650  0.258E+00  0.860E-01  0.860E-01  0.860E-01
 14.660  0.271E+00  0.904E-01  0.904E-01  0.904E-01
 14.670  0.284E+00  0.946E-01  0.946E-01  0.946E-01
 14.680  0.297E+00  0.988E-01  0.988E-01  0.988E-01
 14.690  0.309E+00  0.103E+00  0.103E+00  0.103E+00
 14.700  0.321E+00  0.107E+00  0.107E+00  0.107E+00
 14.710  0.332E+00  0.111E+00  0.111E+00  0.111E+00
 14.720  0.343E+00  0.114E+00  0.114E+00  0.114E+00
 14.730  0.353E+00  0.118E+00  0.118E+00  0.118E+00
 14.740  0.363E+00  0.121E+00  0.121E+00  0.121E+00
 14.750  0.372E+00  0.124E+00  0.124E+00  0.124E+00
 14.760  0.380E+00  0.127E+00  0.127E+00  0.127E+00
 14.770  0.388E+00  0.129E+00  0.129E+00  0.129E+00
 14.780  0.396E+00  0.132E+00  0.132E+00  0.132E+00
 14.790  0.403E+00  0.134E+00  0.134E+00  0.134E+00
 14.800  0.410E+00  0.137E+00  0.137E+00  0.137E+00
 14.810  0.417E+00  0.139E+00  0.139E+00  0.139E+00
 14.820  0.424E+00  0.141E+00  0.141E+00  0.141E+00
 14.830  0.430E+00  0.143E+00  0.143E+00  0.143E+00
 14.840  0.437E+00  0.146E+00  0.146E+00  0.146E+00
 14.850  0.445E+00  0.148E+00  0.148E+00  0.148E+00
 14.860  0.452E+00  0.151E+00  0.151E+00  0.151E+00
 14.870  0.460E+00  0.153E+00  0.153E+00  0.153E+00
 14.880  0.469E+00  0.156E+00  0.156E+00  0.156E+00
 14.890  0.478E+00  0.159E+00  0.159E+00  0.159E+00
 14.900  0.488E+00  0.163E+00  0.163E+00  0.163E+00
 14.910  0.498E+00  0.166E+00  0.166E+00  0.166E+00
 14.920  0.508E+00  0.169E+00  0.169E+00  0.169E+00
 14.930  0.518E+00  0.173E+00  0.173E+00  0.173E+00
 14.940  0.528E+00  0.176E+00  0.176E+00  0.176E+00
 14.950  0.538E+00  0.179E+00  0.179E+00  0.179E+00
 14.960  0.547E+00  0.182E+00  0.182E+00  0.182E+00
 14.970  0.556E+00  0.185E+00  0.185E+00  0.185E+00
 14.980  0.563E+00  0.188E+00  0.188E+00  0.188E+00
 14.990  0.570E+00  0.190E+00  0.190E+00  0.190E+00
 15.000  0.575E+00  0.192E+00  0.192E+00  0.192E+00
 15.010  0.578E+00  0.193E+00  0.193E+00  0.193E+00
 15.020  0.580E+00  0.193E+00  0.193E+00  0.193E+00
 15.030  0.580E+00  0.193E+00  0.193E+00  0.193E+00
 15.040  0.578E+00  0.193E+00  0.193E+00  0.193E+00
 15.050  0.575E+00  0.192E+00  0.192E+00  0.192E+00
 15.060  0.570E+00  0.190E+00  0.190E+00  0.190E+00
 15.070  0.564E+00  0.188E+00  0.188E+00  0.188E+00
 15.080  0.557E+00  0.186E+00  0.186E+00  0.186E+00
 15.090  0.549E+00  0.183E+00  0.183E+00  0.183E+00
 15.100  0.540E+00  0.180E+00  0.180E+00  0.180E+00
 15.110  0.532E+00  0.177E+00  0.177E+00  0.177E+00
 15.120  0.523E+00  0.174E+00  0.174E+00  0.174E+00
 15.130  0.514E+00  0.171E+00  0.171E+00  0.171E+00
 15.140  0.506E+00  0.169E+00  0.169E+00  0.169E+00
 15.150  0.498E+00  0.166E+00  0.166E+00  0.166E+00
 15.160  0.491E+00  0.164E+00  0.164E+00  0.164E+00
 15.170  0.486E+00  0.162E+00  0.162E+00  0.162E+00
 15.180  0.481E+00  0.160E+00  0.160E+00  0.160E+00
 15.190  0.477E+00  0.159E+00  0.159E+00  0.159E+00
 15.200  0.475E+00  0.158E+00  0.158E+00  0.158E+00
 15.210  0.473E+00  0.158E+00  0.158E+00  0.158E+00
 15.220  0.472E+00  0.157E+00  0.157E+00  0.157E+00
 15.230  0.472E+00  0.157E+00  0.157E+00  0.157E+00
 15.240  0.472E+00  0.157E+00  0.157E+00  0.157E+00
 15.250  0.472E+00  0.157E+00  0.157E+00  0.157E+00
 15.260  0.473E+00  0.158E+00  0.158E+00  0.158E+00
 15.270  0.474E+00  0.158E+00  0.158E+00  0.158E+00
 15.280  0.474E+00  0.158E+00  0.158E+00  0.158E+00
 15.290  0.475E+00  0.158E+00  0.158E+00  0.158E+00
 15.300  0.474E+00  0.158E+00  0.158E+00  0.158E+00
 15.310  0.473E+00  0.158E+00  0.158E+00  0.158E+00
 15.320  0.472E+00  0.157E+00  0.157E+00  0.157E+00
 15.330  0.469E+00  0.156E+00  0.156E+00  0.156E+00
 15.340  0.466E+00  0.155E+00  0.155E+00  0.155E+00
 15.350  0.462E+00  0.154E+00  0.154E+00  0.154E+00
 15.360  0.457E+00  0.152E+00  0.152E+00  0.152E+00
 15.370  0.451E+00  0.150E+00  0.150E+00  0.150E+00
 15.380  0.444E+00  0.148E+00  0.148E+00  0.148E+00
 15.390  0.437E+00  0.146E+00  0.146E+00  0.146E+00
 15.400  0.430E+00  0.143E+00  0.143E+00  0.143E+00
 15.410  0.422E+00  0.141E+00  0.141E+00  0.141E+00
 15.420  0.414E+00  0.138E+00  0.138E+00  0.138E+00
 15.430  0.405E+00  0.135E+00  0.135E+00  0.135E+00
 15.440  0.397E+00  0.132E+00  0.132E+00  0.132E+00
 15.450  0.388E+00  0.129E+00  0.129E+00  0.129E+00
 15.460  0.379E+00  0.126E+00  0.126E+00  0.126E+00
 15.470  0.371E+00  0.124E+00  0.124E+00  0.124E+00
 15.480  0.363E+00  0.121E+00  0.121E+00  0.121E+00
 15.490  0.355E+00  0.118E+00  0.118E+00  0.118E+00
 15.500  0.348E+00  0.116E+00  0.116E+00  0.116E+00
 15.510  0.340E+00  0.113E+00  0.113E+00  0.113E+00
 15.520  0.334E+00  0.111E+00  0.111E+00  0.111E+00
 15.530  0.327E+00  0.109E+00  0.109E+00  0.109E+00
 15.540  0.321E+00  0.107E+00  0.107E+00  0.107E+00
 15.550  0.315E+00  0.105E+00  0.105E+00  0.105E+00
 15.560  0.310E+00  0.103E+00  0.103E+00  0.103E+00
 15.570  0.304E+00  0.101E+00  0.101E+00  0.101E+00
 15.580  0.299E+00  0.997E-01  0.997E-01  0.997E-01
 15.590  0.294E+00  0.981E-01  0.981E-01  0.981E-01
 15.600  0.289E+00  0.965E-01  0.965E-01  0.965E-01
 15.610  0.285E+00  0.949E-01  0.949E-01  0.949E-01
 15.620  0.280E+00  0.934E-01  0.934E-01  0.934E-01
 15.630  0.276E+00  0.919E-01  0.919E-01  0.919E-01
 15.640  0.271E+00  0.904E-01  0.904E-01  0.904E-01
 15.650  0.267E+00  0.889E-01  0.889E-01  0.889E-01
 15.660  0.263E+00  0.875E-01  0.875E-01  0.875E-01
 15.670  0.258E+00  0.861E-01  0.861E-01  0.861E-01
 15.680  0.254E+00  0.847E-01  0.847E-01  0.847E-01
 15.690  0.250E+00  0.834E-01  0.834E-01  0.834E-01
 15.700  0.246E+00  0.821E-01  0.821E-01  0.821E-01
 15.710  0.242E+00  0.808E-01  0.808E-01  0.808E-01
 15.720  0.239E+00  0.796E-01  0.796E-01  0.796E-01
 15.730  0.235E+00  0.784E-01  0.784E-01  0.784E-01
 15.740  0.232E+00  0.773E-01  0.773E-01  0.773E-01
 15.750  0.229E+00  0.762E-01  0.762E-01  0.762E-01
 15.760  0.226E+00  0.752E-01  0.752E-01  0.752E-01
 15.770  0.222E+00  0.742E-01  0.742E-01  0.742E-01
 15.780  0.220E+00  0.732E-01  0.732E-01  0.732E-01
 15.790  0.217E+00  0.722E-01  0.722E-01  0.722E-01
 15.800  0.214E+00  0.712E-01  0.712E-01  0.712E-01
 15.810  0.211E+00  0.703E-01  0.703E-01  0.703E-01
 15.820  0.208E+00  0.693E-01  0.693E-01  0.693E-01
 15.830  0.205E+00  0.683E-01  0.683E-01  0.683E-01
 15.840  0.202E+00  0.673E-01  0.673E-01  0.673E-01
 15.850  0.199E+00  0.663E-01  0.663E-01  0.663E-01
 15.860  0.196E+00  0.653E-01  0.653E-01  0.653E-01
 15.870  0.193E+00  0.643E-01  0.643E-01  0.643E-01
 15.880  0.190E+00  0.633E-01  0.633E-01  0.633E-01
 15.890  0.187E+00  0.624E-01  0.624E-01  0.624E-01
 15.900  0.184E+00  0.614E-01  0.614E-01  0.614E-01
 15.910  0.182E+00  0.605E-01  0.605E-01  0.605E-01
 15.920  0.179E+00  0.596E-01  0.596E-01  0.596E-01
 15.930  0.176E+00  0.588E-01  0.588E-01  0.588E-01
 15.940  0.174E+00  0.581E-01  0.581E-01  0.581E-01
 15.950  0.172E+00  0.574E-01  0.574E-01  0.574E-01
 15.960  0.170E+00  0.568E-01  0.568E-01  0.568E-01
 15.970  0.169E+00  0.562E-01  0.562E-01  0.562E-01
 15.980  0.167E+00  0.558E-01  0.558E-01  0.558E-01
 15.990  0.166E+00  0.553E-01  0.553E-01  0.553E-01
 16.000  0.165E+00  0.549E-01  0.549E-01  0.549E-01
 16.010  0.164E+00  0.545E-01  0.545E-01  0.545E-01
 16.020  0.163E+00  0.542E-01  0.542E-01  0.542E-01
 16.030  0.161E+00  0.538E-01  0.538E-01  0.538E-01
 16.040  0.160E+00  0.534E-01  0.534E-01  0.534E-01
 16.050  0.159E+00  0.529E-01  0.529E-01  0.529E-01
 16.060  0.157E+00  0.524E-01  0.524E-01  0.524E-01
 16.070  0.156E+00  0.519E-01  0.519E-01  0.519E-01
 16.080  0.154E+00  0.512E-01  0.512E-01  0.512E-01
 16.090  0.152E+00  0.505E-01  0.505E-01  0.505E-01
 16.100  0.149E+00  0.497E-01  0.497E-01  0.497E-01
 16.110  0.147E+00  0.489E-01  0.489E-01  0.489E-01
 16.120  0.144E+00  0.480E-01  0.480E-01  0.480E-01
 16.130  0.141E+00  0.471E-01  0.471E-01  0.471E-01
 16.140  0.138E+00  0.462E-01  0.462E-01  0.462E-01
 16.150  0.136E+00  0.452E-01  0.452E-01  0.452E-01
 16.160  0.133E+00  0.443E-01  0.443E-01  0.443E-01
 16.170  0.130E+00  0.435E-01  0.435E-01  0.435E-01
 16.180  0.128E+00  0.427E-01  0.427E-01  0.427E-01
 16.190  0.126E+00  0.419E-01  0.419E-01  0.419E-01
 16.200  0.124E+00  0.413E-01  0.413E-01  0.413E-01
 16.210  0.122E+00  0.408E-01  0.408E-01  0.408E-01
 16.220  0.121E+00  0.403E-01  0.403E-01  0.403E-01
 16.230  0.120E+00  0.399E-01  0.399E-01  0.399E-01
 16.240  0.119E+00  0.396E-01  0.396E-01  0.396E-01
 16.250  0.118E+00  0.394E-01  0.394E-01  0.394E-01
 16.260  0.118E+00  0.392E-01  0.392E-01  0.392E-01
 16.270  0.117E+00  0.391E-01  0.391E-01  0.391E-01
 16.280  0.117E+00  0.390E-01  0.390E-01  0.390E-01
 16.290  0.117E+00  0.388E-01  0.388E-01  0.388E-01
 16.300  0.116E+00  0.387E-01  0.387E-01  0.387E-01
 16.310  0.116E+00  0.386E-01  0.386E-01  0.386E-01
 16.320  0.115E+00  0.385E-01  0.385E-01  0.385E-01
 16.330  0.115E+00  0.383E-01  0.383E-01  0.383E-01
 16.340  0.114E+00  0.382E-01  0.382E-01  0.382E-01
 16.350  0.114E+00  0.380E-01  0.380E-01  0.380E-01
 16.360  0.114E+00  0.380E-01  0.380E-01  0.380E-01
 16.370  0.114E+00  0.379E-01  0.379E-01  0.379E-01
 16.380  0.114E+00  0.380E-01  0.380E-01  0.380E-01
 16.390  0.115E+00  0.382E-01  0.382E-01  0.382E-01
 16.400  0.116E+00  0.386E-01  0.386E-01  0.386E-01
 16.410  0.117E+00  0.391E-01  0.391E-01  0.391E-01
 16.420  0.120E+00  0.399E-01  0.399E-01  0.399E-01
 16.430  0.123E+00  0.409E-01  0.409E-01  0.409E-01
 16.440  0.126E+00  0.422E-01  0.422E-01  0.422E-01
 16.450  0.131E+00  0.437E-01  0.437E-01  0.437E-01
 16.460  0.137E+00  0.456E-01  0.456E-01  0.456E-01
 16.470  0.143E+00  0.478E-01  0.478E-01  0.478E-01
 16.480  0.151E+00  0.504E-01  0.504E-01  0.504E-01
 16.490  0.160E+00  0.532E-01  0.532E-01  0.532E-01
 16.500  0.169E+00  0.564E-01  0.564E-01  0.564E-01
 16.510  0.179E+00  0.598E-01  0.598E-01  0.598E-01
 16.520  0.191E+00  0.636E-01  0.636E-01  0.636E-01
 16.530  0.203E+00  0.676E-01  0.676E-01  0.676E-01
 16.540  0.215E+00  0.718E-01  0.718E-01  0.718E-01
 16.550  0.228E+00  0.761E-01  0.761E-01  0.761E-01
 16.560  0.242E+00  0.807E-01  0.807E-01  0.807E-01
 16.570  0.256E+00  0.853E-01  0.853E-01  0.853E-01
 16.580  0.270E+00  0.901E-01  0.901E-01  0.901E-01
 16.590  0.285E+00  0.949E-01  0.949E-01  0.949E-01
 16.600  0.299E+00  0.997E-01  0.997E-01  0.997E-01
 16.610  0.314E+00  0.105E+00  0.105E+00  0.105E+00
 16.620  0.328E+00  0.109E+00  0.109E+00  0.109E+00
 16.630  0.342E+00  0.114E+00  0.114E+00  0.114E+00
 16.640  0.357E+00  0.119E+00  0.119E+00  0.119E+00
 16.650  0.371E+00  0.124E+00  0.124E+00  0.124E+00
 16.660  0.385E+00  0.128E+00  0.128E+00  0.128E+00
 16.670  0.400E+00  0.133E+00  0.133E+00  0.133E+00
 16.680  0.414E+00  0.138E+00  0.138E+00  0.138E+00
 16.690  0.428E+00  0.143E+00  0.143E+00  0.143E+00
 16.700  0.443E+00  0.148E+00  0.148E+00  0.148E+00
 16.710  0.458E+00  0.153E+00  0.153E+00  0.153E+00
 16.720  0.473E+00  0.158E+00  0.158E+00  0.158E+00
 16.730  0.488E+00  0.163E+00  0.163E+00  0.163E+00
 16.740  0.503E+00  0.168E+00  0.168E+00  0.168E+00
 16.750  0.519E+00  0.173E+00  0.173E+00  0.173E+00
 16.760  0.534E+00  0.178E+00  0.178E+00  0.178E+00
 16.770  0.549E+00  0.183E+00  0.183E+00  0.183E+00
 16.780  0.564E+00  0.188E+00  0.188E+00  0.188E+00
 16.790  0.579E+00  0.193E+00  0.193E+00  0.193E+00
 16.800  0.593E+00  0.198E+00  0.198E+00  0.198E+00
 16.810  0.607E+00  0.202E+00  0.202E+00  0.202E+00
 16.820  0.620E+00  0.207E+00  0.207E+00  0.207E+00
 16.830  0.633E+00  0.211E+00  0.211E+00  0.211E+00
 16.840  0.644E+00  0.215E+00  0.215E+00  0.215E+00
 16.850  0.655E+00  0.218E+00  0.218E+00  0.218E+00
 16.860  0.665E+00  0.222E+00  0.222E+00  0.222E+00
 16.870  0.674E+00  0.225E+00  0.225E+00  0.225E+00
 16.880  0.683E+00  0.228E+00  0.228E+00  0.228E+00
 16.890  0.691E+00  0.230E+00  0.230E+00  0.230E+00
 16.900  0.698E+00  0.233E+00  0.233E+00  0.233E+00
 16.910  0.705E+00  0.235E+00  0.235E+00  0.235E+00
 16.920  0.712E+00  0.237E+00  0.237E+00  0.237E+00
 16.930  0.718E+00  0.239E+00  0.239E+00  0.239E+00
 16.940  0.724E+00  0.241E+00  0.241E+00  0.241E+00
 16.950  0.730E+00  0.243E+00  0.243E+00  0.243E+00
 16.960  0.735E+00  0.245E+00  0.245E+00  0.245E+00
 16.970  0.740E+00  0.247E+00  0.247E+00  0.247E+00
 16.980  0.745E+00  0.248E+00  0.248E+00  0.248E+00
 16.990  0.750E+00  0.250E+00  0.250E+00  0.250E+00
 17.000  0.754E+00  0.251E+00  0.251E+00  0.251E+00
 17.010  0.757E+00  0.252E+00  0.252E+00  0.252E+00
 17.020  0.761E+00  0.254E+00  0.254E+00  0.254E+00
 17.030  0.763E+00  0.254E+00  0.254E+00  0.254E+00
 17.040  0.765E+00  0.255E+00  0.255E+00  0.255E+00
 17.050  0.767E+00  0.256E+00  0.256E+00  0.256E+00
 17.060  0.768E+00  0.256E+00  0.256E+00  0.256E+00
 17.070  0.769E+00  0.256E+00  0.256E+00  0.256E+00
 17.080  0.769E+00  0.256E+00  0.256E+00  0.256E+00
 17.090  0.769E+00  0.256E+00  0.256E+00  0.256E+00
 17.100  0.769E+00  0.256E+00  0.256E+00  0.256E+00
 17.110  0.768E+00  0.256E+00  0.256E+00  0.256E+00
 17.120  0.768E+00  0.256E+00  0.256E+00  0.256E+00
 17.130  0.767E+00  0.256E+00  0.256E+00  0.256E+00
 17.140  0.767E+00  0.256E+00  0.256E+00  0.256E+00
 17.150  0.767E+00  0.256E+00  0.256E+00  0.256E+00
 17.160  0.767E+00  0.256E+00  0.256E+00  0.256E+00
 17.170  0.768E+00  0.256E+00  0.256E+00  0.256E+00
 17.180  0.769E+00  0.256E+00  0.256E+00  0.256E+00
 17.190  0.770E+00  0.257E+00  0.257E+00  0.257E+00
 17.200  0.771E+00  0.257E+00  0.257E+00  0.257E+00
 17.210  0.772E+00  0.257E+00  0.257E+00  0.257E+00
 17.220  0.774E+00  0.258E+00  0.258E+00  0.258E+00
 17.230  0.775E+00  0.258E+00  0.258E+00  0.258E+00
 17.240  0.775E+00  0.258E+00  0.258E+00  0.258E+00
 17.250  0.776E+00  0.259E+00  0.259E+00  0.259E+00
 17.260  0.775E+00  0.258E+00  0.258E+00  0.258E+00
 17.270  0.774E+00  0.258E+00  0.258E+00  0.258E+00
 17.280  0.772E+00  0.257E+00  0.257E+00  0.257E+00
 17.290  0.769E+00  0.256E+00  0.256E+00  0.256E+00
 17.300  0.764E+00  0.255E+00  0.255E+00  0.255E+00
 17.310  0.759E+00  0.253E+00  0.253E+00  0.253E+00
 17.320  0.752E+00  0.251E+00  0.251E+00  0.251E+00
 17.330  0.744E+00  0.248E+00  0.248E+00  0.248E+00
 17.340  0.736E+00  0.245E+00  0.245E+00  0.245E+00
 17.350  0.726E+00  0.242E+00  0.242E+00  0.242E+00
 17.360  0.716E+00  0.239E+00  0.239E+00  0.239E+00
 17.370  0.706E+00  0.235E+00  0.235E+00  0.235E+00
 17.380  0.696E+00  0.232E+00  0.232E+00  0.232E+00
 17.390  0.685E+00  0.228E+00  0.228E+00  0.228E+00
 17.400  0.675E+00  0.225E+00  0.225E+00  0.225E+00
 17.410  0.666E+00  0.222E+00  0.222E+00  0.222E+00
 17.420  0.658E+00  0.219E+00  0.219E+00  0.219E+00
 17.430  0.650E+00  0.217E+00  0.217E+00  0.217E+00
 17.440  0.643E+00  0.214E+00  0.214E+00  0.214E+00
 17.450  0.637E+00  0.212E+00  0.212E+00  0.212E+00
 17.460  0.633E+00  0.211E+00  0.211E+00  0.211E+00
 17.470  0.629E+00  0.210E+00  0.210E+00  0.210E+00
 17.480  0.625E+00  0.208E+00  0.208E+00  0.208E+00
 17.490  0.623E+00  0.208E+00  0.208E+00  0.208E+00
 17.500  0.620E+00  0.207E+00  0.207E+00  0.207E+00
 17.510  0.618E+00  0.206E+00  0.206E+00  0.206E+00
 17.520  0.616E+00  0.205E+00  0.205E+00  0.205E+00
 17.530  0.614E+00  0.205E+00  0.205E+00  0.205E+00
 17.540  0.611E+00  0.204E+00  0.204E+00  0.204E+00
 17.550  0.607E+00  0.202E+00  0.202E+00  0.202E+00
 17.560  0.603E+00  0.201E+00  0.201E+00  0.201E+00
 17.570  0.598E+00  0.199E+00  0.199E+00  0.199E+00
 17.580  0.592E+00  0.197E+00  0.197E+00  0.197E+00
 17.590  0.586E+00  0.195E+00  0.195E+00  0.195E+00
 17.600  0.578E+00  0.193E+00  0.193E+00  0.193E+00
 17.610  0.571E+00  0.190E+00  0.190E+00  0.190E+00
 17.620  0.563E+00  0.188E+00  0.188E+00  0.188E+00
 17.630  0.554E+00  0.185E+00  0.185E+00  0.185E+00
 17.640  0.546E+00  0.182E+00  0.182E+00  0.182E+00
 17.650  0.538E+00  0.179E+00  0.179E+00  0.179E+00
 17.660  0.531E+00  0.177E+00  0.177E+00  0.177E+00
 17.670  0.524E+00  0.175E+00  0.175E+00  0.175E+00
 17.680  0.517E+00  0.172E+00  0.172E+00  0.172E+00
 17.690  0.512E+00  0.171E+00  0.171E+00  0.171E+00
 17.700  0.508E+00  0.169E+00  0.169E+00  0.169E+00
 17.710  0.505E+00  0.168E+00  0.168E+00  0.168E+00
 17.720  0.502E+00  0.167E+00  0.167E+00  0.167E+00
 17.730  0.501E+00  0.167E+00  0.167E+00  0.167E+00
 17.740  0.501E+00  0.167E+00  0.167E+00  0.167E+00
 17.750  0.501E+00  0.167E+00  0.167E+00  0.167E+00
 17.760  0.502E+00  0.167E+00  0.167E+00  0.167E+00
 17.770  0.503E+00  0.168E+00  0.168E+00  0.168E+00
 17.780  0.505E+00  0.168E+00  0.168E+00  0.168E+00
 17.790  0.507E+00  0.169E+00  0.169E+00  0.169E+00
 17.800  0.508E+00  0.169E+00  0.169E+00  0.169E+00
 17.810  0.509E+00  0.170E+00  0.170E+00  0.170E+00
 17.820  0.510E+00  0.170E+00  0.170E+00  0.170E+00
 17.830  0.510E+00  0.170E+00  0.170E+00  0.170E+00
 17.840  0.509E+00  0.170E+00  0.170E+00  0.170E+00
 17.850  0.508E+00  0.169E+00  0.169E+00  0.169E+00
 17.860  0.506E+00  0.169E+00  0.169E+00  0.169E+00
 17.870  0.503E+00  0.168E+00  0.168E+00  0.168E+00
 17.880  0.499E+00  0.166E+00  0.166E+00  0.166E+00
 17.890  0.494E+00  0.165E+00  0.165E+00  0.165E+00
 17.900  0.489E+00  0.163E+00  0.163E+00  0.163E+00
 17.910  0.484E+00  0.161E+00  0.161E+00  0.161E+00
 17.920  0.478E+00  0.159E+00  0.159E+00  0.159E+00
 17.930  0.472E+00  0.157E+00  0.157E+00  0.157E+00
 17.940  0.465E+00  0.155E+00  0.155E+00  0.155E+00
 17.950  0.459E+00  0.153E+00  0.153E+00  0.153E+00
 17.960  0.453E+00  0.151E+00  0.151E+00  0.151E+00
 17.970  0.448E+00  0.149E+00  0.149E+00  0.149E+00
 17.980  0.442E+00  0.147E+00  0.147E+00  0.147E+00
 17.990  0.438E+00  0.146E+00  0.146E+00  0.146E+00
 18.000  0.434E+00  0.145E+00  0.145E+00  0.145E+00
 18.010  0.431E+00  0.144E+00  0.144E+00  0.144E+00
 18.020  0.428E+00  0.143E+00  0.143E+00  0.143E+00
 18.030  0.427E+00  0.142E+00  0.142E+00  0.142E+00
 18.040  0.426E+00  0.142E+00  0.142E+00  0.142E+00
 18.050  0.427E+00  0.142E+00  0.142E+00  0.142E+00
 18.060  0.428E+00  0.143E+00  0.143E+00  0.143E+00
 18.070  0.430E+00  0.143E+00  0.143E+00  0.143E+00
 18.080  0.434E+00  0.145E+00  0.145E+00  0.145E+00
 18.090  0.438E+00  0.146E+00  0.146E+00  0.146E+00
 18.100  0.444E+00  0.148E+00  0.148E+00  0.148E+00
 18.110  0.451E+00  0.150E+00  0.150E+00  0.150E+00
 18.120  0.459E+00  0.153E+00  0.153E+00  0.153E+00
 18.130  0.469E+00  0.156E+00  0.156E+00  0.156E+00
 18.140  0.480E+00  0.160E+00  0.160E+00  0.160E+00
 18.150  0.492E+00  0.164E+00  0.164E+00  0.164E+00
 18.160  0.506E+00  0.169E+00  0.169E+00  0.169E+00
 18.170  0.521E+00  0.174E+00  0.174E+00  0.174E+00
 18.180  0.538E+00  0.179E+00  0.179E+00  0.179E+00
 18.190  0.556E+00  0.185E+00  0.185E+00  0.185E+00
 18.200  0.576E+00  0.192E+00  0.192E+00  0.192E+00
 18.210  0.597E+00  0.199E+00  0.199E+00  0.199E+00
 18.220  0.620E+00  0.207E+00  0.207E+00  0.207E+00
 18.230  0.644E+00  0.215E+00  0.215E+00  0.215E+00
 18.240  0.668E+00  0.223E+00  0.223E+00  0.223E+00
 18.250  0.694E+00  0.231E+00  0.231E+00  0.231E+00
 18.260  0.720E+00  0.240E+00  0.240E+00  0.240E+00
 18.270  0.747E+00  0.249E+00  0.249E+00  0.249E+00
 18.280  0.774E+00  0.258E+00  0.258E+00  0.258E+00
 18.290  0.800E+00  0.267E+00  0.267E+00  0.267E+00
 18.300  0.827E+00  0.276E+00  0.276E+00  0.276E+00
 18.310  0.853E+00  0.284E+00  0.284E+00  0.284E+00
 18.320  0.878E+00  0.293E+00  0.293E+00  0.293E+00
 18.330  0.903E+00  0.301E+00  0.301E+00  0.301E+00
 18.340  0.926E+00  0.309E+00  0.309E+00  0.309E+00
 18.350  0.949E+00  0.316E+00  0.316E+00  0.316E+00
 18.360  0.971E+00  0.324E+00  0.324E+00  0.324E+00
 18.370  0.992E+00  0.331E+00  0.331E+00  0.331E+00
 18.380  0.101E+01  0.337E+00  0.337E+00  0.337E+00
 18.390  0.103E+01  0.344E+00  0.344E+00  0.344E+00
 18.400  0.105E+01  0.350E+00  0.350E+00  0.350E+00
 18.410  0.107E+01  0.356E+00  0.356E+00  0.356E+00
 18.420  0.108E+01  0.361E+00  0.361E+00  0.361E+00
 18.430  0.110E+01  0.367E+00  0.367E+00  0.367E+00
 18.440  0.112E+01  0.373E+00  0.373E+00  0.373E+00
 18.450  0.113E+01  0.378E+00  0.378E+00  0.378E+00
 18.460  0.115E+01  0.384E+00  0.384E+00  0.384E+00
 18.470  0.117E+01  0.389E+00  0.389E+00  0.389E+00
 18.480  0.118E+01  0.395E+00  0.395E+00  0.395E+00
 18.490  0.120E+01  0.400E+00  0.400E+00  0.400E+00
 18.500  0.122E+01  0.406E+00  0.406E+00  0.406E+00
 18.510  0.123E+01  0.412E+00  0.412E+00  0.412E+00
 18.520  0.125E+01  0.417E+00  0.417E+00  0.417E+00
 18.530  0.127E+01  0.423E+00  0.423E+00  0.423E+00
 18.540  0.129E+01  0.429E+00  0.429E+00  0.429E+00
 18.550  0.131E+01  0.435E+00  0.435E+00  0.435E+00
 18.560  0.132E+01  0.442E+00  0.442E+00  0.442E+00
 18.570  0.134E+01  0.448E+00  0.448E+00  0.448E+00
 18.580  0.136E+01  0.454E+00  0.454E+00  0.454E+00
 18.590  0.138E+01  0.461E+00  0.461E+00  0.461E+00
 18.600  0.140E+01  0.467E+00  0.467E+00  0.467E+00
 18.610  0.142E+01  0.474E+00  0.474E+00  0.474E+00
 18.620  0.144E+01  0.481E+00  0.481E+00  0.481E+00
 18.630  0.146E+01  0.488E+00  0.488E+00  0.488E+00
 18.640  0.148E+01  0.495E+00  0.495E+00  0.495E+00
 18.650  0.151E+01  0.502E+00  0.502E+00  0.502E+00
 18.660  0.153E+01  0.509E+00  0.509E+00  0.509E+00
 18.670  0.155E+01  0.517E+00  0.517E+00  0.517E+00
 18.680  0.157E+01  0.525E+00  0.525E+00  0.525E+00
 18.690  0.160E+01  0.533E+00  0.533E+00  0.533E+00
 18.700  0.162E+01  0.541E+00  0.541E+00  0.541E+00
 18.710  0.165E+01  0.550E+00  0.550E+00  0.550E+00
 18.720  0.167E+01  0.558E+00  0.558E+00  0.558E+00
 18.730  0.170E+01  0.567E+00  0.567E+00  0.567E+00
 18.740  0.173E+01  0.576E+00  0.576E+00  0.576E+00
 18.750  0.175E+01  0.585E+00  0.585E+00  0.585E+00
 18.760  0.178E+01  0.594E+00  0.594E+00  0.594E+00
 18.770  0.181E+01  0.603E+00  0.603E+00  0.603E+00
 18.780  0.184E+01  0.612E+00  0.612E+00  0.612E+00
 18.790  0.186E+01  0.620E+00  0.620E+00  0.620E+00
 18.800  0.189E+01  0.629E+00  0.629E+00  0.629E+00
 18.810  0.191E+01  0.636E+00  0.636E+00  0.636E+00
 18.820  0.193E+01  0.643E+00  0.643E+00  0.643E+00
 18.830  0.195E+01  0.649E+00  0.649E+00  0.649E+00
 18.840  0.196E+01  0.655E+00  0.655E+00  0.655E+00
 18.850  0.198E+01  0.659E+00  0.659E+00  0.659E+00
 18.860  0.198E+01  0.661E+00  0.661E+00  0.661E+00
 18.870  0.199E+01  0.663E+00  0.663E+00  0.663E+00
 18.880  0.199E+01  0.663E+00  0.663E+00  0.663E+00
 18.890  0.198E+01  0.661E+00  0.661E+00  0.661E+00
 18.900  0.197E+01  0.658E+00  0.658E+00  0.658E+00
 18.910  0.196E+01  0.652E+00  0.652E+00  0.652E+00
 18.920  0.194E+01  0.646E+00  0.646E+00  0.646E+00
 18.930  0.191E+01  0.637E+00  0.637E+00  0.637E+00
 18.940  0.188E+01  0.627E+00  0.627E+00  0.627E+00
 18.950  0.185E+01  0.615E+00  0.615E+00  0.615E+00
 18.960  0.181E+01  0.602E+00  0.602E+00  0.602E+00
 18.970  0.176E+01  0.588E+00  0.588E+00  0.588E+00
 18.980  0.172E+01  0.572E+00  0.572E+00  0.572E+00
 18.990  0.167E+01  0.555E+00  0.555E+00  0.555E+00
 19.000  0.161E+01  0.538E+00  0.538E+00  0.538E+00
 19.010  0.156E+01  0.520E+00  0.520E+00  0.520E+00
 19.020  0.150E+01  0.502E+00  0.502E+00  0.502E+00
 19.030  0.145E+01  0.483E+00  0.483E+00  0.483E+00
 19.040  0.139E+01  0.465E+00  0.465E+00  0.465E+00
 19.050  0.134E+01  0.446E+00  0.446E+00  0.446E+00
 19.060  0.128E+01  0.428E+00  0.428E+00  0.428E+00
 19.070  0.123E+01  0.411E+00  0.411E+00  0.411E+00
 19.080  0.118E+01  0.394E+00  0.394E+00  0.394E+00
 19.090  0.113E+01  0.377E+00  0.377E+00  0.377E+00
 19.100  0.109E+01  0.362E+00  0.362E+00  0.362E+00
 19.110  0.104E+01  0.347E+00  0.347E+00  0.347E+00
 19.120  0.100E+01  0.333E+00  0.333E+00  0.333E+00
 19.130  0.961E+00  0.320E+00  0.320E+00  0.320E+00
 19.140  0.925E+00  0.308E+00  0.308E+00  0.308E+00
 19.150  0.890E+00  0.297E+00  0.297E+00  0.297E+00
 19.160  0.858E+00  0.286E+00  0.286E+00  0.286E+00
 19.170  0.828E+00  0.276E+00  0.276E+00  0.276E+00
 19.180  0.800E+00  0.267E+00  0.267E+00  0.267E+00
 19.190  0.773E+00  0.258E+00  0.258E+00  0.258E+00
 19.200  0.748E+00  0.249E+00  0.249E+00  0.249E+00
 19.210  0.725E+00  0.242E+00  0.242E+00  0.242E+00
 19.220  0.703E+00  0.234E+00  0.234E+00  0.234E+00
 19.230  0.681E+00  0.227E+00  0.227E+00  0.227E+00
 19.240  0.661E+00  0.220E+00  0.220E+00  0.220E+00
 19.250  0.642E+00  0.214E+00  0.214E+00  0.214E+00
 19.260  0.623E+00  0.208E+00  0.208E+00  0.208E+00
 19.270  0.605E+00  0.202E+00  0.202E+00  0.202E+00
 19.280  0.587E+00  0.196E+00  0.196E+00  0.196E+00
 19.290  0.570E+00  0.190E+00  0.190E+00  0.190E+00
 19.300  0.554E+00  0.185E+00  0.185E+00  0.185E+00
 19.310  0.538E+00  0.179E+00  0.179E+00  0.179E+00
 19.320  0.522E+00  0.174E+00  0.174E+00  0.174E+00
 19.330  0.506E+00  0.169E+00  0.169E+00  0.169E+00
 19.340  0.491E+00  0.164E+00  0.164E+00  0.164E+00
 19.350  0.476E+00  0.159E+00  0.159E+00  0.159E+00
 19.360  0.462E+00  0.154E+00  0.154E+00  0.154E+00
 19.370  0.447E+00  0.149E+00  0.149E+00  0.149E+00
 19.380  0.433E+00  0.144E+00  0.144E+00  0.144E+00
 19.390  0.419E+00  0.140E+00  0.140E+00  0.140E+00
 19.400  0.406E+00  0.135E+00  0.135E+00  0.135E+00
 19.410  0.392E+00  0.131E+00  0.131E+00  0.131E+00
 19.420  0.379E+00  0.126E+00  0.126E+00  0.126E+00
 19.430  0.366E+00  0.122E+00  0.122E+00  0.122E+00
 19.440  0.354E+00  0.118E+00  0.118E+00  0.118E+00
 19.450  0.342E+00  0.114E+00  0.114E+00  0.114E+00
 19.460  0.330E+00  0.110E+00  0.110E+00  0.110E+00
 19.470  0.319E+00  0.106E+00  0.106E+00  0.106E+00
 19.480  0.309E+00  0.103E+00  0.103E+00  0.103E+00
 19.490  0.299E+00  0.998E-01  0.998E-01  0.998E-01
 19.500  0.290E+00  0.967E-01  0.967E-01  0.967E-01
 19.510  0.282E+00  0.939E-01  0.939E-01  0.939E-01
 19.520  0.274E+00  0.913E-01  0.913E-01  0.913E-01
 19.530  0.267E+00  0.889E-01  0.889E-01  0.889E-01
 19.540  0.260E+00  0.866E-01  0.866E-01  0.866E-01
 19.550  0.254E+00  0.845E-01  0.845E-01  0.845E-01
 19.560  0.248E+00  0.826E-01  0.826E-01  0.826E-01
 19.570  0.242E+00  0.808E-01  0.808E-01  0.808E-01
 19.580  0.237E+00  0.790E-01  0.790E-01  0.790E-01
 19.590  0.232E+00  0.773E-01  0.773E-01  0.773E-01
 19.600  0.227E+00  0.756E-01  0.756E-01  0.756E-01
 19.610  0.222E+00  0.739E-01  0.739E-01  0.739E-01
 19.620  0.217E+00  0.722E-01  0.722E-01  0.722E-01
 19.630  0.211E+00  0.704E-01  0.704E-01  0.704E-01
 19.640  0.206E+00  0.687E-01  0.687E-01  0.687E-01
 19.650  0.201E+00  0.669E-01  0.669E-01  0.669E-01
 19.660  0.195E+00  0.650E-01  0.650E-01  0.650E-01
 19.670  0.190E+00  0.632E-01  0.632E-01  0.632E-01
 19.680  0.184E+00  0.613E-01  0.613E-01  0.613E-01
 19.690  0.178E+00  0.595E-01  0.595E-01  0.595E-01
 19.700  0.173E+00  0.576E-01  0.576E-01  0.576E-01
 19.710  0.167E+00  0.558E-01  0.558E-01  0.558E-01
 19.720  0.162E+00  0.541E-01  0.541E-01  0.541E-01
 19.730  0.157E+00  0.524E-01  0.524E-01  0.524E-01
 19.740  0.152E+00  0.508E-01  0.508E-01  0.508E-01
 19.750  0.148E+00  0.493E-01  0.493E-01  0.493E-01
 19.760  0.144E+00  0.479E-01  0.479E-01  0.479E-01
 19.770  0.139E+00  0.465E-01  0.465E-01  0.465E-01
 19.780  0.136E+00  0.452E-01  0.452E-01  0.452E-01
 19.790  0.132E+00  0.440E-01  0.440E-01  0.440E-01
 19.800  0.128E+00  0.428E-01  0.428E-01  0.428E-01
 19.810  0.125E+00  0.417E-01  0.417E-01  0.417E-01
 19.820  0.122E+00  0.406E-01  0.406E-01  0.406E-01
 19.830  0.119E+00  0.396E-01  0.396E-01  0.396E-01
 19.840  0.116E+00  0.385E-01  0.385E-01  0.385E-01
 19.850  0.113E+00  0.375E-01  0.375E-01  0.375E-01
 19.860  0.110E+00  0.365E-01  0.365E-01  0.365E-01
 19.870  0.107E+00  0.356E-01  0.356E-01  0.356E-01
 19.880  0.104E+00  0.346E-01  0.346E-01  0.346E-01
 19.890  0.101E+00  0.336E-01  0.336E-01  0.336E-01
 19.900  0.980E-01  0.327E-01  0.327E-01  0.327E-01
 19.910  0.951E-01  0.317E-01  0.317E-01  0.317E-01
 19.920  0.923E-01  0.308E-01  0.308E-01  0.308E-01
 19.930  0.894E-01  0.298E-01  0.298E-01  0.298E-01
 19.940  0.866E-01  0.289E-01  0.289E-01  0.289E-01
 19.950  0.837E-01  0.279E-01  0.279E-01  0.279E-01
 19.960  0.809E-01  0.270E-01  0.270E-01  0.270E-01
 19.970  0.780E-01  0.260E-01  0.260E-01  0.260E-01
 19.980  0.751E-01  0.250E-01  0.250E-01  0.250E-01
 19.990  0.721E-01  0.240E-01  0.240E-01  0.240E-01
 20.000  0.692E-01  0.231E-01  0.231E-01  0.231E-01
 20.010  0.662E-01  0.221E-01  0.221E-01  0.221E-01
 20.020  0.631E-01  0.210E-01  0.210E-01  0.210E-01
 20.030  0.600E-01  0.200E-01  0.200E-01  0.200E-01
 20.040  0.569E-01  0.190E-01  0.190E-01  0.190E-01
 20.050  0.538E-01  0.179E-01  0.179E-01  0.179E-01
 20.060  0.506E-01  0.169E-01  0.169E-01  0.169E-01
 20.070  0.475E-01  0.158E-01  0.158E-01  0.158E-01
 20.080  0.443E-01  0.148E-01  0.148E-01  0.148E-01
 20.090  0.412E-01  0.137E-01  0.137E-01  0.137E-01
 20.100  0.381E-01  0.127E-01  0.127E-01  0.127E-01
 20.110  0.350E-01  0.117E-01  0.117E-01  0.117E-01
 20.120  0.320E-01  0.107E-01  0.107E-01  0.107E-01
 20.130  0.291E-01  0.971E-02  0.971E-02  0.971E-02
 20.140  0.263E-01  0.878E-02  0.878E-02  0.878E-02
 20.150  0.237E-01  0.789E-02  0.789E-02  0.789E-02
 20.160  0.211E-01  0.704E-02  0.704E-02  0.704E-02
 20.170  0.187E-01  0.624E-02  0.624E-02  0.624E-02
 20.180  0.165E-01  0.550E-02  0.550E-02  0.550E-02
 20.190  0.144E-01  0.481E-02  0.481E-02  0.481E-02
 20.200  0.125E-01  0.417E-02  0.417E-02  0.417E-02
 20.210  0.108E-01  0.359E-02  0.359E-02  0.359E-02
 20.220  0.921E-02  0.307E-02  0.307E-02  0.307E-02
 20.230  0.781E-02  0.260E-02  0.260E-02  0.260E-02
 20.240  0.657E-02  0.219E-02  0.219E-02  0.219E-02
 20.250  0.548E-02  0.183E-02  0.183E-02  0.183E-02
 20.260  0.453E-02  0.151E-02  0.151E-02  0.151E-02
 20.270  0.372E-02  0.124E-02  0.124E-02  0.124E-02
 20.280  0.302E-02  0.101E-02  0.101E-02  0.101E-02
 20.290  0.243E-02  0.811E-03  0.811E-03  0.811E-03
 20.300  0.194E-02  0.648E-03  0.648E-03  0.648E-03
 20.310  0.154E-02  0.513E-03  0.513E-03  0.513E-03
 20.320  0.121E-02  0.402E-03  0.402E-03  0.402E-03
 20.330  0.937E-03  0.312E-03  0.312E-03  0.312E-03
 20.340  0.722E-03  0.241E-03  0.241E-03  0.241E-03
 20.350  0.551E-03  0.184E-03  0.184E-03  0.184E-03
 20.360  0.416E-03  0.139E-03  0.139E-03  0.139E-03
 20.370  0.311E-03  0.104E-03  0.104E-03  0.104E-03
 20.380  0.231E-03  0.770E-04  0.770E-04  0.770E-04
 20.390  0.170E-03  0.566E-04  0.566E-04  0.566E-04
 20.400  0.123E-03  0.412E-04  0.412E-04  0.412E-04
 20.410  0.890E-04  0.297E-04  0.297E-04  0.297E-04
 20.420  0.635E-04  0.212E-04  0.212E-04  0.212E-04
 20.430  0.449E-04  0.150E-04  0.150E-04  0.150E-04
 20.440  0.314E-04  0.105E-04  0.105E-04  0.105E-04
 20.450  0.218E-04  0.727E-05  0.727E-05  0.727E-05
 20.460  0.150E-04  0.499E-05  0.499E-05  0.499E-05
 20.470  0.102E-04  0.339E-05  0.339E-05  0.339E-05
 20.480  0.686E-05  0.229E-05  0.229E-05  0.229E-05
 20.490  0.458E-05  0.153E-05  0.153E-05  0.153E-05
 20.500  0.302E-05  0.101E-05  0.101E-05  0.101E-05
 20.510  0.198E-05  0.659E-06  0.659E-06  0.659E-06
 20.520  0.128E-05  0.427E-06  0.427E-06  0.427E-06
 20.530  0.822E-06  0.274E-06  0.274E-06  0.274E-06
 20.540  0.522E-06  0.174E-06  0.174E-06  0.174E-06
 20.550  0.328E-06  0.109E-06  0.109E-06  0.109E-06
