# E (eV)  dos(E)    pdos(E)
 -6.080  0.876E-04  0.875E-04
 -6.070  0.141E-03  0.141E-03
 -6.060  0.224E-03  0.223E-03
 -6.050  0.352E-03  0.351E-03
 -6.040  0.548E-03  0.547E-03
 -6.030  0.844E-03  0.843E-03
 -6.020  0.129E-02  0.129E-02
 -6.010  0.194E-02  0.194E-02
 -6.000  0.290E-02  0.290E-02
 -5.990  0.429E-02  0.429E-02
 -5.980  0.629E-02  0.628E-02
 -5.970  0.911E-02  0.910E-02
 -5.960  0.131E-01  0.131E-01
 -5.950  0.185E-01  0.185E-01
 -5.940  0.260E-01  0.260E-01
 -5.930  0.362E-01  0.362E-01
 -5.920  0.498E-01  0.498E-01
 -5.910  0.679E-01  0.679E-01
 -5.900  0.916E-01  0.915E-01
 -5.890  0.122E+00  0.122E+00
 -5.880  0.162E+00  0.161E+00
 -5.870  0.211E+00  0.211E+00
 -5.860  0.274E+00  0.273E+00
 -5.850  0.351E+00  0.350E+00
 -5.840  0.445E+00  0.445E+00
 -5.830  0.559E+00  0.559E+00
 -5.820  0.695E+00  0.695E+00
 -5.810  0.856E+00  0.855E+00
 -5.800  0.104E+01  0.104E+01
 -5.790  0.126E+01  0.126E+01
 -5.780  0.150E+01  0.150E+01
 -5.770  0.178E+01  0.178E+01
 -5.760  0.208E+01  0.208E+01
 -5.750  0.241E+01  0.241E+01
 -5.740  0.277E+01  0.277E+01
 -5.730  0.315E+01  0.315E+01
 -5.720  0.355E+01  0.355E+01
 -5.710  0.396E+01  0.396E+01
 -5.700  0.437E+01  0.437E+01
 -5.690  0.478E+01  0.478E+01
 -5.680  0.518E+01  0.518E+01
 -5.670  0.556E+01  0.556E+01
 -5.660  0.591E+01  0.591E+01
 -5.650  0.623E+01  0.622E+01
 -5.640  0.650E+01  0.650E+01
 -5.630  0.673E+01  0.672E+01
 -5.620  0.689E+01  0.689E+01
 -5.610  0.701E+01  0.700E+01
 -5.600  0.706E+01  0.705E+01
 -5.590  0.705E+01  0.704E+01
 -5.580  0.698E+01  0.698E+01
 -5.570  0.686E+01  0.685E+01
 -5.560  0.668E+01  0.668E+01
 -5.550  0.646E+01  0.646E+01
 -5.540  0.621E+01  0.620E+01
 -5.530  0.591E+01  0.591E+01
 -5.520  0.560E+01  0.559E+01
 -5.510  0.526E+01  0.526E+01
 -5.500  0.491E+01  0.491E+01
 -5.490  0.456E+01  0.456E+01
 -5.480  0.421E+01  0.421E+01
 -5.470  0.387E+01  0.387E+01
 -5.460  0.354E+01  0.354E+01
 -5.450  0.322E+01  0.322E+01
 -5.440  0.292E+01  0.291E+01
 -5.430  0.263E+01  0.263E+01
 -5.420  0.237E+01  0.236E+01
 -5.410  0.212E+01  0.212E+01
 -5.400  0.190E+01  0.189E+01
 -5.390  0.169E+01  0.169E+01
 -5.380  0.150E+01  0.150E+01
 -5.370  0.133E+01  0.133E+01
 -5.360  0.117E+01  0.117E+01
 -5.350  0.103E+01  0.103E+01
 -5.340  0.908E+00  0.907E+00
 -5.330  0.794E+00  0.793E+00
 -5.320  0.693E+00  0.692E+00
 -5.310  0.602E+00  0.601E+00
 -5.300  0.521E+00  0.521E+00
 -5.290  0.449E+00  0.449E+00
 -5.280  0.386E+00  0.385E+00
 -5.270  0.329E+00  0.329E+00
 -5.260  0.280E+00  0.279E+00
 -5.250  0.236E+00  0.236E+00
 -5.240  0.198E+00  0.198E+00
 -5.230  0.166E+00  0.165E+00
 -5.220  0.137E+00  0.137E+00
 -5.210  0.113E+00  0.113E+00
 -5.200  0.925E-01  0.924E-01
 -5.190  0.751E-01  0.750E-01
 -5.180  0.606E-01  0.605E-01
 -5.170  0.485E-01  0.484E-01
 -5.160  0.385E-01  0.384E-01
 -5.150  0.303E-01  0.303E-01
 -5.140  0.237E-01  0.236E-01
 -5.130  0.183E-01  0.183E-01
 -5.120  0.141E-01  0.141E-01
 -5.110  0.107E-01  0.107E-01
 -5.100  0.810E-02  0.809E-02
 -5.090  0.607E-02  0.606E-02
 -5.080  0.450E-02  0.449E-02
 -5.070  0.331E-02  0.330E-02
 -5.060  0.241E-02  0.241E-02
 -5.050  0.174E-02  0.174E-02
 -5.040  0.124E-02  0.124E-02
 -5.030  0.882E-03  0.881E-03
 -5.020  0.619E-03  0.618E-03
 -5.010  0.431E-03  0.430E-03
 -5.000  0.297E-03  0.296E-03
 -4.990  0.202E-03  0.202E-03
 -4.980  0.137E-03  0.136E-03
 -4.970  0.915E-04  0.913E-04
 -4.960  0.606E-04  0.605E-04
 -4.950  0.398E-04  0.397E-04
 -4.940  0.259E-04  0.258E-04
 -4.930  0.166E-04  0.166E-04
 -4.920  0.106E-04  0.106E-04
 -4.910  0.673E-05  0.671E-05
 -4.900  0.425E-05  0.425E-05
 -4.890  0.273E-05  0.272E-05
 -4.880  0.184E-05  0.184E-05
 -4.870  0.142E-05  0.142E-05
 -4.860  0.139E-05  0.139E-05
 -4.850  0.176E-05  0.176E-05
 -4.840  0.263E-05  0.263E-05
 -4.830  0.424E-05  0.424E-05
 -4.820  0.701E-05  0.700E-05
 -4.810  0.116E-04  0.116E-04
 -4.800  0.191E-04  0.191E-04
 -4.790  0.312E-04  0.312E-04
 -4.780  0.505E-04  0.505E-04
 -4.770  0.809E-04  0.809E-04
 -4.760  0.129E-03  0.129E-03
 -4.750  0.202E-03  0.202E-03
 -4.740  0.315E-03  0.315E-03
 -4.730  0.487E-03  0.487E-03
 -4.720  0.745E-03  0.745E-03
 -4.710  0.113E-02  0.113E-02
 -4.700  0.170E-02  0.170E-02
 -4.690  0.253E-02  0.253E-02
 -4.680  0.373E-02  0.373E-02
 -4.670  0.545E-02  0.545E-02
 -4.660  0.789E-02  0.789E-02
 -4.650  0.113E-01  0.113E-01
 -4.640  0.161E-01  0.161E-01
 -4.630  0.227E-01  0.227E-01
 -4.620  0.317E-01  0.317E-01
 -4.610  0.440E-01  0.440E-01
 -4.600  0.603E-01  0.603E-01
 -4.590  0.820E-01  0.820E-01
 -4.580  0.111E+00  0.111E+00
 -4.570  0.148E+00  0.148E+00
 -4.560  0.196E+00  0.196E+00
 -4.550  0.257E+00  0.257E+00
 -4.540  0.334E+00  0.334E+00
 -4.530  0.430E+00  0.430E+00
 -4.520  0.550E+00  0.550E+00
 -4.510  0.697E+00  0.697E+00
 -4.500  0.874E+00  0.874E+00
 -4.490  0.109E+01  0.109E+01
 -4.480  0.134E+01  0.134E+01
 -4.470  0.164E+01  0.164E+01
 -4.460  0.199E+01  0.199E+01
 -4.450  0.239E+01  0.239E+01
 -4.440  0.284E+01  0.284E+01
 -4.430  0.335E+01  0.335E+01
 -4.420  0.392E+01  0.392E+01
 -4.410  0.455E+01  0.455E+01
 -4.400  0.523E+01  0.523E+01
 -4.390  0.597E+01  0.596E+01
 -4.380  0.674E+01  0.674E+01
 -4.370  0.756E+01  0.756E+01
 -4.360  0.841E+01  0.841E+01
 -4.350  0.928E+01  0.928E+01
 -4.340  0.102E+02  0.102E+02
 -4.330  0.110E+02  0.110E+02
 -4.320  0.119E+02  0.119E+02
 -4.310  0.127E+02  0.127E+02
 -4.300  0.135E+02  0.135E+02
 -4.290  0.143E+02  0.143E+02
 -4.280  0.150E+02  0.150E+02
 -4.270  0.156E+02  0.156E+02
 -4.260  0.162E+02  0.162E+02
 -4.250  0.167E+02  0.167E+02
 -4.240  0.171E+02  0.171E+02
 -4.230  0.175E+02  0.175E+02
 -4.220  0.179E+02  0.179E+02
 -4.210  0.182E+02  0.182E+02
 -4.200  0.184E+02  0.184E+02
 -4.190  0.186E+02  0.186E+02
 -4.180  0.188E+02  0.188E+02
 -4.170  0.190E+02  0.190E+02
 -4.160  0.191E+02  0.191E+02
 -4.150  0.193E+02  0.192E+02
 -4.140  0.194E+02  0.194E+02
 -4.130  0.194E+02  0.194E+02
 -4.120  0.195E+02  0.195E+02
 -4.110  0.195E+02  0.195E+02
 -4.100  0.195E+02  0.195E+02
 -4.090  0.195E+02  0.195E+02
 -4.080  0.194E+02  0.194E+02
 -4.070  0.192E+02  0.192E+02
 -4.060  0.189E+02  0.189E+02
 -4.050  0.186E+02  0.186E+02
 -4.040  0.182E+02  0.182E+02
 -4.030  0.177E+02  0.177E+02
 -4.020  0.171E+02  0.171E+02
 -4.010  0.164E+02  0.164E+02
 -4.000  0.156E+02  0.156E+02
 -3.990  0.148E+02  0.148E+02
 -3.980  0.139E+02  0.139E+02
 -3.970  0.130E+02  0.130E+02
 -3.960  0.121E+02  0.121E+02
 -3.950  0.111E+02  0.111E+02
 -3.940  0.101E+02  0.101E+02
 -3.930  0.917E+01  0.917E+01
 -3.920  0.823E+01  0.823E+01
 -3.910  0.733E+01  0.733E+01
 -3.900  0.648E+01  0.648E+01
 -3.890  0.568E+01  0.568E+01
 -3.880  0.494E+01  0.494E+01
 -3.870  0.427E+01  0.426E+01
 -3.860  0.366E+01  0.366E+01
 -3.850  0.311E+01  0.311E+01
 -3.840  0.264E+01  0.264E+01
 -3.830  0.222E+01  0.222E+01
 -3.820  0.186E+01  0.186E+01
 -3.810  0.156E+01  0.156E+01
 -3.800  0.131E+01  0.131E+01
 -3.790  0.109E+01  0.109E+01
 -3.780  0.922E+00  0.921E+00
 -3.770  0.782E+00  0.781E+00
 -3.760  0.670E+00  0.669E+00
 -3.750  0.581E+00  0.581E+00
 -3.740  0.513E+00  0.512E+00
 -3.730  0.460E+00  0.460E+00
 -3.720  0.421E+00  0.420E+00
 -3.710  0.391E+00  0.391E+00
 -3.700  0.370E+00  0.370E+00
 -3.690  0.355E+00  0.355E+00
 -3.680  0.345E+00  0.345E+00
 -3.670  0.339E+00  0.338E+00
 -3.660  0.335E+00  0.334E+00
 -3.650  0.332E+00  0.332E+00
 -3.640  0.332E+00  0.331E+00
 -3.630  0.332E+00  0.331E+00
 -3.620  0.333E+00  0.332E+00
 -3.610  0.334E+00  0.333E+00
 -3.600  0.335E+00  0.335E+00
 -3.590  0.337E+00  0.337E+00
 -3.580  0.340E+00  0.339E+00
 -3.570  0.342E+00  0.342E+00
 -3.560  0.345E+00  0.345E+00
 -3.550  0.348E+00  0.348E+00
 -3.540  0.352E+00  0.351E+00
 -3.530  0.356E+00  0.355E+00
 -3.520  0.360E+00  0.359E+00
 -3.510  0.364E+00  0.363E+00
 -3.500  0.368E+00  0.368E+00
 -3.490  0.372E+00  0.372E+00
 -3.480  0.377E+00  0.376E+00
 -3.470  0.381E+00  0.381E+00
 -3.460  0.385E+00  0.385E+00
 -3.450  0.389E+00  0.389E+00
 -3.440  0.393E+00  0.392E+00
 -3.430  0.396E+00  0.396E+00
 -3.420  0.399E+00  0.399E+00
 -3.410  0.402E+00  0.402E+00
 -3.400  0.405E+00  0.404E+00
 -3.390  0.407E+00  0.407E+00
 -3.380  0.410E+00  0.409E+00
 -3.370  0.412E+00  0.411E+00
 -3.360  0.414E+00  0.414E+00
 -3.350  0.417E+00  0.416E+00
 -3.340  0.420E+00  0.419E+00
 -3.330  0.423E+00  0.422E+00
 -3.320  0.426E+00  0.426E+00
 -3.310  0.430E+00  0.430E+00
 -3.300  0.435E+00  0.434E+00
 -3.290  0.439E+00  0.439E+00
 -3.280  0.444E+00  0.444E+00
 -3.270  0.450E+00  0.449E+00
 -3.260  0.455E+00  0.454E+00
 -3.250  0.461E+00  0.460E+00
 -3.240  0.466E+00  0.466E+00
 -3.230  0.472E+00  0.471E+00
 -3.220  0.477E+00  0.476E+00
 -3.210  0.482E+00  0.481E+00
 -3.200  0.487E+00  0.486E+00
 -3.190  0.491E+00  0.490E+00
 -3.180  0.495E+00  0.494E+00
 -3.170  0.498E+00  0.497E+00
 -3.160  0.501E+00  0.501E+00
 -3.150  0.504E+00  0.504E+00
 -3.140  0.507E+00  0.506E+00
 -3.130  0.510E+00  0.509E+00
 -3.120  0.513E+00  0.512E+00
 -3.110  0.516E+00  0.515E+00
 -3.100  0.519E+00  0.518E+00
 -3.090  0.523E+00  0.522E+00
 -3.080  0.527E+00  0.526E+00
 -3.070  0.532E+00  0.531E+00
 -3.060  0.537E+00  0.536E+00
 -3.050  0.542E+00  0.542E+00
 -3.040  0.549E+00  0.548E+00
 -3.030  0.555E+00  0.554E+00
 -3.020  0.562E+00  0.561E+00
 -3.010  0.569E+00  0.569E+00
 -3.000  0.577E+00  0.576E+00
 -2.990  0.584E+00  0.583E+00
 -2.980  0.591E+00  0.590E+00
 -2.970  0.598E+00  0.597E+00
 -2.960  0.605E+00  0.604E+00
 -2.950  0.611E+00  0.610E+00
 -2.940  0.617E+00  0.616E+00
 -2.930  0.623E+00  0.622E+00
 -2.920  0.628E+00  0.627E+00
 -2.910  0.633E+00  0.632E+00
 -2.900  0.637E+00  0.636E+00
 -2.890  0.642E+00  0.641E+00
 -2.880  0.646E+00  0.645E+00
 -2.870  0.651E+00  0.650E+00
 -2.860  0.656E+00  0.655E+00
 -2.850  0.661E+00  0.660E+00
 -2.840  0.667E+00  0.666E+00
 -2.830  0.673E+00  0.672E+00
 -2.820  0.680E+00  0.679E+00
 -2.810  0.688E+00  0.687E+00
 -2.800  0.696E+00  0.695E+00
 -2.790  0.705E+00  0.704E+00
 -2.780  0.715E+00  0.714E+00
 -2.770  0.725E+00  0.724E+00
 -2.760  0.735E+00  0.734E+00
 -2.750  0.746E+00  0.745E+00
 -2.740  0.757E+00  0.756E+00
 -2.730  0.768E+00  0.766E+00
 -2.720  0.778E+00  0.777E+00
 -2.710  0.789E+00  0.787E+00
 -2.700  0.799E+00  0.798E+00
 -2.690  0.809E+00  0.808E+00
 -2.680  0.819E+00  0.817E+00
 -2.670  0.828E+00  0.827E+00
 -2.660  0.838E+00  0.837E+00
 -2.650  0.848E+00  0.846E+00
 -2.640  0.858E+00  0.856E+00
 -2.630  0.868E+00  0.866E+00
 -2.620  0.879E+00  0.877E+00
 -2.610  0.890E+00  0.889E+00
 -2.600  0.903E+00  0.901E+00
 -2.590  0.916E+00  0.915E+00
 -2.580  0.931E+00  0.930E+00
 -2.570  0.947E+00  0.945E+00
 -2.560  0.964E+00  0.962E+00
 -2.550  0.982E+00  0.980E+00
 -2.540  0.100E+01  0.999E+00
 -2.530  0.102E+01  0.102E+01
 -2.520  0.104E+01  0.104E+01
 -2.510  0.106E+01  0.106E+01
 -2.500  0.109E+01  0.108E+01
 -2.490  0.111E+01  0.111E+01
 -2.480  0.113E+01  0.113E+01
 -2.470  0.116E+01  0.115E+01
 -2.460  0.118E+01  0.118E+01
 -2.450  0.120E+01  0.120E+01
 -2.440  0.123E+01  0.122E+01
 -2.430  0.125E+01  0.125E+01
 -2.420  0.127E+01  0.127E+01
 -2.410  0.130E+01  0.129E+01
 -2.400  0.132E+01  0.132E+01
 -2.390  0.134E+01  0.134E+01
 -2.380  0.137E+01  0.136E+01
 -2.370  0.139E+01  0.139E+01
 -2.360  0.141E+01  0.141E+01
 -2.350  0.143E+01  0.143E+01
 -2.340  0.146E+01  0.145E+01
 -2.330  0.148E+01  0.148E+01
 -2.320  0.150E+01  0.150E+01
 -2.310  0.152E+01  0.152E+01
 -2.300  0.154E+01  0.154E+01
 -2.290  0.156E+01  0.155E+01
 -2.280  0.157E+01  0.157E+01
 -2.270  0.159E+01  0.159E+01
 -2.260  0.161E+01  0.160E+01
 -2.250  0.162E+01  0.162E+01
 -2.240  0.164E+01  0.163E+01
 -2.230  0.165E+01  0.165E+01
 -2.220  0.167E+01  0.166E+01
 -2.210  0.168E+01  0.168E+01
 -2.200  0.169E+01  0.169E+01
 -2.190  0.171E+01  0.171E+01
 -2.180  0.172E+01  0.172E+01
 -2.170  0.174E+01  0.174E+01
 -2.160  0.175E+01  0.175E+01
 -2.150  0.177E+01  0.177E+01
 -2.140  0.179E+01  0.178E+01
 -2.130  0.180E+01  0.180E+01
 -2.120  0.182E+01  0.182E+01
 -2.110  0.184E+01  0.184E+01
 -2.100  0.186E+01  0.186E+01
 -2.090  0.188E+01  0.187E+01
 -2.080  0.189E+01  0.189E+01
 -2.070  0.191E+01  0.191E+01
 -2.060  0.193E+01  0.193E+01
 -2.050  0.194E+01  0.194E+01
 -2.040  0.196E+01  0.195E+01
 -2.030  0.197E+01  0.197E+01
 -2.020  0.198E+01  0.198E+01
 -2.010  0.198E+01  0.198E+01
 -2.000  0.199E+01  0.198E+01
 -1.990  0.198E+01  0.198E+01
 -1.980  0.198E+01  0.197E+01
 -1.970  0.197E+01  0.196E+01
 -1.960  0.195E+01  0.195E+01
 -1.950  0.192E+01  0.192E+01
 -1.940  0.190E+01  0.189E+01
 -1.930  0.186E+01  0.186E+01
 -1.920  0.182E+01  0.182E+01
 -1.910  0.177E+01  0.177E+01
 -1.900  0.171E+01  0.171E+01
 -1.890  0.165E+01  0.165E+01
 -1.880  0.158E+01  0.158E+01
 -1.870  0.151E+01  0.151E+01
 -1.860  0.144E+01  0.143E+01
 -1.850  0.136E+01  0.135E+01
 -1.840  0.127E+01  0.127E+01
 -1.830  0.119E+01  0.118E+01
 -1.820  0.110E+01  0.110E+01
 -1.810  0.101E+01  0.101E+01
 -1.800  0.927E+00  0.926E+00
 -1.790  0.842E+00  0.841E+00
 -1.780  0.760E+00  0.759E+00
 -1.770  0.681E+00  0.681E+00
 -1.760  0.606E+00  0.606E+00
 -1.750  0.536E+00  0.535E+00
 -1.740  0.470E+00  0.469E+00
 -1.730  0.409E+00  0.408E+00
 -1.720  0.353E+00  0.353E+00
 -1.710  0.302E+00  0.302E+00
 -1.700  0.257E+00  0.257E+00
 -1.690  0.217E+00  0.216E+00
 -1.680  0.181E+00  0.181E+00
 -1.670  0.150E+00  0.150E+00
 -1.660  0.124E+00  0.124E+00
 -1.650  0.101E+00  0.101E+00
 -1.640  0.816E-01  0.815E-01
 -1.630  0.654E-01  0.654E-01
 -1.620  0.520E-01  0.520E-01
 -1.610  0.410E-01  0.410E-01
 -1.600  0.320E-01  0.320E-01
 -1.590  0.248E-01  0.248E-01
 -1.580  0.190E-01  0.190E-01
 -1.570  0.145E-01  0.145E-01
 -1.560  0.109E-01  0.109E-01
 -1.550  0.814E-02  0.814E-02
 -1.540  0.603E-02  0.602E-02
 -1.530  0.442E-02  0.441E-02
 -1.520  0.321E-02  0.320E-02
 -1.510  0.231E-02  0.231E-02
 -1.500  0.164E-02  0.164E-02
 -1.490  0.116E-02  0.116E-02
 -1.480  0.812E-03  0.811E-03
 -1.470  0.562E-03  0.562E-03
 -1.460  0.386E-03  0.385E-03
 -1.450  0.262E-03  0.262E-03
 -1.440  0.176E-03  0.176E-03
 -1.430  0.117E-03  0.117E-03
 -1.420  0.774E-04  0.774E-04
 -1.410  0.506E-04  0.505E-04
 -1.400  0.327E-04  0.327E-04
 -1.390  0.210E-04  0.209E-04
 -1.380  0.133E-04  0.133E-04
 -1.370  0.834E-05  0.834E-05
 -1.360  0.519E-05  0.518E-05
 -1.350  0.319E-05  0.319E-05
 -1.340  0.194E-05  0.194E-05
 -1.330  0.117E-05  0.117E-05
 -1.320  0.700E-06  0.699E-06
 -1.310  0.414E-06  0.413E-06
 -1.300  0.242E-06  0.242E-06
 -1.290  0.140E-06  0.140E-06
 -1.280  0.804E-07  0.803E-07
 -1.270  0.456E-07  0.456E-07
 -1.260  0.256E-07  0.256E-07
 -1.250  0.142E-07  0.142E-07
 -1.240  0.783E-08  0.783E-08
 -1.230  0.427E-08  0.426E-08
 -1.220  0.230E-08  0.230E-08
 -1.210  0.123E-08  0.123E-08
 -1.200  0.647E-09  0.647E-09
 -1.190  0.338E-09  0.337E-09
 -1.180  0.174E-09  0.174E-09
 -1.170  0.891E-10  0.890E-10
 -1.160  0.448E-10  0.447E-10
 -1.150  0.223E-10  0.223E-10
 -1.140  0.109E-10  0.109E-10
 -1.130  0.515E-11  0.514E-11
 -1.120  0.245E-11  0.245E-11
 -1.110  0.110E-11  0.110E-11
 -1.100  0.358E-12  0.358E-12
 -1.090  0.171E-12  0.171E-12
 -1.080  0.000E+00  0.000E+00
 -1.070  0.000E+00  0.000E+00
 -1.060  0.000E+00  0.000E+00
 -1.050  0.000E+00  0.000E+00
 -1.040  0.000E+00  0.000E+00
 -1.030  0.000E+00  0.000E+00
 -1.020  0.000E+00  0.000E+00
 -1.010  0.000E+00  0.000E+00
 -1.000  0.000E+00  0.000E+00
 -0.990  0.000E+00  0.000E+00
 -0.980  0.000E+00  0.000E+00
 -0.970  0.000E+00  0.000E+00
 -0.960  0.000E+00  0.000E+00
 -0.950  0.000E+00  0.000E+00
 -0.940  0.000E+00  0.000E+00
 -0.930  0.000E+00  0.000E+00
 -0.920  0.000E+00  0.000E+00
 -0.910  0.000E+00  0.000E+00
 -0.900  0.000E+00  0.000E+00
 -0.890  0.000E+00  0.000E+00
 -0.880  0.000E+00  0.000E+00
 -0.870  0.000E+00  0.000E+00
 -0.860  0.000E+00  0.000E+00
 -0.850  0.000E+00  0.000E+00
 -0.840  0.000E+00  0.000E+00
 -0.830  0.000E+00  0.000E+00
 -0.820  0.000E+00  0.000E+00
 -0.810  0.000E+00  0.000E+00
 -0.800  0.000E+00  0.000E+00
 -0.790  0.000E+00  0.000E+00
 -0.780  0.000E+00  0.000E+00
 -0.770  0.000E+00  0.000E+00
 -0.760  0.000E+00  0.000E+00
 -0.750  0.000E+00  0.000E+00
 -0.740  0.000E+00  0.000E+00
 -0.730  0.000E+00  0.000E+00
 -0.720  0.000E+00  0.000E+00
 -0.710  0.000E+00  0.000E+00
 -0.700  0.000E+00  0.000E+00
 -0.690  0.000E+00  0.000E+00
 -0.680  0.000E+00  0.000E+00
 -0.670  0.000E+00  0.000E+00
 -0.660  0.000E+00  0.000E+00
 -0.650  0.000E+00  0.000E+00
 -0.640  0.000E+00  0.000E+00
 -0.630  0.000E+00  0.000E+00
 -0.620  0.000E+00  0.000E+00
 -0.610  0.000E+00  0.000E+00
 -0.600  0.000E+00  0.000E+00
 -0.590  0.000E+00  0.000E+00
 -0.580  0.000E+00  0.000E+00
 -0.570  0.000E+00  0.000E+00
 -0.560  0.000E+00  0.000E+00
 -0.550  0.000E+00  0.000E+00
 -0.540  0.000E+00  0.000E+00
 -0.530  0.000E+00  0.000E+00
 -0.520  0.000E+00  0.000E+00
 -0.510  0.000E+00  0.000E+00
 -0.500  0.000E+00  0.000E+00
 -0.490  0.000E+00  0.000E+00
 -0.480  0.000E+00  0.000E+00
 -0.470  0.000E+00  0.000E+00
 -0.460  0.000E+00  0.000E+00
 -0.450  0.000E+00  0.000E+00
 -0.440  0.000E+00  0.000E+00
 -0.430  0.000E+00  0.000E+00
 -0.420  0.000E+00  0.000E+00
 -0.410  0.000E+00  0.000E+00
 -0.400  0.000E+00  0.000E+00
 -0.390  0.000E+00  0.000E+00
 -0.380  0.000E+00  0.000E+00
 -0.370  0.000E+00  0.000E+00
 -0.360  0.000E+00  0.000E+00
 -0.350  0.000E+00  0.000E+00
 -0.340  0.000E+00  0.000E+00
 -0.330  0.000E+00  0.000E+00
 -0.320  0.000E+00  0.000E+00
 -0.310  0.000E+00  0.000E+00
 -0.300  0.000E+00  0.000E+00
 -0.290  0.000E+00  0.000E+00
 -0.280  0.000E+00  0.000E+00
 -0.270  0.000E+00  0.000E+00
 -0.260  0.000E+00  0.000E+00
 -0.250  0.000E+00  0.000E+00
 -0.240  0.000E+00  0.000E+00
 -0.230  0.000E+00  0.000E+00
 -0.220  0.000E+00  0.000E+00
 -0.210  0.000E+00  0.000E+00
 -0.200  0.000E+00  0.000E+00
 -0.190  0.000E+00  0.000E+00
 -0.180  0.000E+00  0.000E+00
 -0.170  0.000E+00  0.000E+00
 -0.160  0.000E+00  0.000E+00
 -0.150  0.000E+00  0.000E+00
 -0.140  0.000E+00  0.000E+00
 -0.130  0.000E+00  0.000E+00
 -0.120  0.000E+00  0.000E+00
 -0.110  0.000E+00  0.000E+00
 -0.100  0.000E+00  0.000E+00
 -0.090  0.000E+00  0.000E+00
 -0.080  0.000E+00  0.000E+00
 -0.070  0.000E+00  0.000E+00
 -0.060  0.000E+00  0.000E+00
 -0.050  0.000E+00  0.000E+00
 -0.040  0.000E+00  0.000E+00
 -0.030  0.000E+00  0.000E+00
 -0.020  0.000E+00  0.000E+00
 -0.010  0.000E+00  0.000E+00
  0.000  0.000E+00  0.000E+00
  0.010  0.000E+00  0.000E+00
  0.020  0.000E+00  0.000E+00
  0.030  0.000E+00  0.000E+00
  0.040  0.000E+00  0.000E+00
  0.050  0.000E+00  0.000E+00
  0.060  0.000E+00  0.000E+00
  0.070  0.000E+00  0.000E+00
  0.080  0.000E+00  0.000E+00
  0.090  0.000E+00  0.000E+00
  0.100  0.000E+00  0.000E+00
  0.110  0.000E+00  0.000E+00
  0.120  0.000E+00  0.000E+00
  0.130  0.000E+00  0.000E+00
  0.140  0.000E+00  0.000E+00
  0.150  0.000E+00  0.000E+00
  0.160  0.000E+00  0.000E+00
  0.170  0.000E+00  0.000E+00
  0.180  0.000E+00  0.000E+00
  0.190  0.000E+00  0.000E+00
  0.200  0.000E+00  0.000E+00
  0.210  0.000E+00  0.000E+00
  0.220  0.000E+00  0.000E+00
  0.230  0.000E+00  0.000E+00
  0.240  0.000E+00  0.000E+00
  0.250  0.000E+00  0.000E+00
  0.260  0.000E+00  0.000E+00
  0.270  0.000E+00  0.000E+00
  0.280  0.000E+00  0.000E+00
  0.290  0.000E+00  0.000E+00
  0.300  0.000E+00  0.000E+00
  0.310  0.000E+00  0.000E+00
  0.320  0.000E+00  0.000E+00
  0.330  0.000E+00  0.000E+00
  0.340  0.000E+00  0.000E+00
  0.350  0.000E+00  0.000E+00
  0.360  0.000E+00  0.000E+00
  0.370  0.000E+00  0.000E+00
  0.380  0.000E+00  0.000E+00
  0.390  0.000E+00  0.000E+00
  0.400  0.000E+00  0.000E+00
  0.410  0.000E+00  0.000E+00
  0.420  0.000E+00  0.000E+00
  0.430  0.000E+00  0.000E+00
  0.440  0.000E+00  0.000E+00
  0.450  0.000E+00  0.000E+00
  0.460  0.000E+00  0.000E+00
  0.470  0.000E+00  0.000E+00
  0.480  0.000E+00  0.000E+00
  0.490  0.000E+00  0.000E+00
  0.500  0.000E+00  0.000E+00
  0.510  0.000E+00  0.000E+00
  0.520  0.000E+00  0.000E+00
  0.530  0.000E+00  0.000E+00
  0.540  0.000E+00  0.000E+00
  0.550  0.000E+00  0.000E+00
  0.560  0.000E+00  0.000E+00
  0.570  0.000E+00  0.000E+00
  0.580  0.000E+00  0.000E+00
  0.590  0.000E+00  0.000E+00
  0.600  0.000E+00  0.000E+00
  0.610  0.000E+00  0.000E+00
  0.620  0.000E+00  0.000E+00
  0.630  0.000E+00  0.000E+00
  0.640  0.000E+00  0.000E+00
  0.650  0.000E+00  0.000E+00
  0.660  0.000E+00  0.000E+00
  0.670  0.000E+00  0.000E+00
  0.680  0.000E+00  0.000E+00
  0.690  0.000E+00  0.000E+00
  0.700  0.000E+00  0.000E+00
  0.710  0.000E+00  0.000E+00
  0.720  0.000E+00  0.000E+00
  0.730  0.000E+00  0.000E+00
  0.740  0.000E+00  0.000E+00
  0.750  0.000E+00  0.000E+00
  0.760  0.000E+00  0.000E+00
  0.770  0.000E+00  0.000E+00
  0.780  0.000E+00  0.000E+00
  0.790  0.000E+00  0.000E+00
  0.800  0.000E+00  0.000E+00
  0.810  0.000E+00  0.000E+00
  0.820  0.000E+00  0.000E+00
  0.830  0.000E+00  0.000E+00
  0.840  0.000E+00  0.000E+00
  0.850  0.000E+00  0.000E+00
  0.860  0.000E+00  0.000E+00
  0.870  0.000E+00  0.000E+00
  0.880  0.000E+00  0.000E+00
  0.890  0.000E+00  0.000E+00
  0.900  0.000E+00  0.000E+00
  0.910  0.000E+00  0.000E+00
  0.920  0.000E+00  0.000E+00
  0.930  0.000E+00  0.000E+00
  0.940  0.000E+00  0.000E+00
  0.950  0.000E+00  0.000E+00
  0.960  0.000E+00  0.000E+00
  0.970  0.000E+00  0.000E+00
  0.980  0.000E+00  0.000E+00
  0.990  0.000E+00  0.000E+00
  1.000  0.000E+00  0.000E+00
  1.010  0.000E+00  0.000E+00
  1.020  0.000E+00  0.000E+00
  1.030  0.000E+00  0.000E+00
  1.040  0.000E+00  0.000E+00
  1.050  0.000E+00  0.000E+00
  1.060  0.000E+00  0.000E+00
  1.070  0.000E+00  0.000E+00
  1.080  0.000E+00  0.000E+00
  1.090  0.000E+00  0.000E+00
  1.100  0.000E+00  0.000E+00
  1.110  0.000E+00  0.000E+00
  1.120  0.000E+00  0.000E+00
  1.130  0.000E+00  0.000E+00
  1.140  0.000E+00  0.000E+00
  1.150  0.000E+00  0.000E+00
  1.160  0.000E+00  0.000E+00
  1.170  0.000E+00  0.000E+00
  1.180  0.000E+00  0.000E+00
  1.190  0.000E+00  0.000E+00
  1.200  0.000E+00  0.000E+00
  1.210  0.000E+00  0.000E+00
  1.220  0.000E+00  0.000E+00
  1.230  0.000E+00  0.000E+00
  1.240  0.000E+00  0.000E+00
  1.250  0.000E+00  0.000E+00
  1.260  0.000E+00  0.000E+00
  1.270  0.000E+00  0.000E+00
  1.280  0.000E+00  0.000E+00
  1.290  0.000E+00  0.000E+00
  1.300  0.000E+00  0.000E+00
  1.310  0.000E+00  0.000E+00
  1.320  0.000E+00  0.000E+00
  1.330  0.000E+00  0.000E+00
  1.340  0.000E+00  0.000E+00
  1.350  0.000E+00  0.000E+00
  1.360  0.000E+00  0.000E+00
  1.370  0.000E+00  0.000E+00
  1.380  0.000E+00  0.000E+00
  1.390  0.000E+00  0.000E+00
  1.400  0.000E+00  0.000E+00
  1.410  0.000E+00  0.000E+00
  1.420  0.000E+00  0.000E+00
  1.430  0.000E+00  0.000E+00
  1.440  0.000E+00  0.000E+00
  1.450  0.000E+00  0.000E+00
  1.460  0.000E+00  0.000E+00
  1.470  0.000E+00  0.000E+00
  1.480  0.000E+00  0.000E+00
  1.490  0.000E+00  0.000E+00
  1.500  0.000E+00  0.000E+00
  1.510  0.000E+00  0.000E+00
  1.520  0.000E+00  0.000E+00
  1.530  0.000E+00  0.000E+00
  1.540  0.000E+00  0.000E+00
  1.550  0.000E+00  0.000E+00
  1.560  0.000E+00  0.000E+00
  1.570  0.000E+00  0.000E+00
  1.580  0.000E+00  0.000E+00
  1.590  0.000E+00  0.000E+00
  1.600  0.000E+00  0.000E+00
  1.610  0.000E+00  0.000E+00
  1.620  0.000E+00  0.000E+00
  1.630  0.000E+00  0.000E+00
  1.640  0.000E+00  0.000E+00
  1.650  0.000E+00  0.000E+00
  1.660  0.000E+00  0.000E+00
  1.670  0.000E+00  0.000E+00
  1.680  0.000E+00  0.000E+00
  1.690  0.000E+00  0.000E+00
  1.700  0.000E+00  0.000E+00
  1.710  0.000E+00  0.000E+00
  1.720  0.000E+00  0.000E+00
  1.730  0.000E+00  0.000E+00
  1.740  0.000E+00  0.000E+00
  1.750  0.000E+00  0.000E+00
  1.760  0.000E+00  0.000E+00
  1.770  0.000E+00  0.000E+00
  1.780  0.000E+00  0.000E+00
  1.790  0.000E+00  0.000E+00
  1.800  0.000E+00  0.000E+00
  1.810  0.000E+00  0.000E+00
  1.820  0.000E+00  0.000E+00
  1.830  0.000E+00  0.000E+00
  1.840  0.000E+00  0.000E+00
  1.850  0.000E+00  0.000E+00
  1.860  0.000E+00  0.000E+00
  1.870  0.000E+00  0.000E+00
  1.880  0.000E+00  0.000E+00
  1.890  0.000E+00  0.000E+00
  1.900  0.000E+00  0.000E+00
  1.910  0.000E+00  0.000E+00
  1.920  0.000E+00  0.000E+00
  1.930  0.000E+00  0.000E+00
  1.940  0.000E+00  0.000E+00
  1.950  0.000E+00  0.000E+00
  1.960  0.000E+00  0.000E+00
  1.970  0.000E+00  0.000E+00
  1.980  0.000E+00  0.000E+00
  1.990  0.000E+00  0.000E+00
  2.000  0.000E+00  0.000E+00
  2.010  0.000E+00  0.000E+00
  2.020  0.000E+00  0.000E+00
  2.030  0.000E+00  0.000E+00
  2.040  0.000E+00  0.000E+00
  2.050  0.000E+00  0.000E+00
  2.060  0.000E+00  0.000E+00
  2.070  0.000E+00  0.000E+00
  2.080  0.000E+00  0.000E+00
  2.090  0.000E+00  0.000E+00
  2.100  0.000E+00  0.000E+00
  2.110  0.000E+00  0.000E+00
  2.120  0.000E+00  0.000E+00
  2.130  0.000E+00  0.000E+00
  2.140  0.000E+00  0.000E+00
  2.150  0.000E+00  0.000E+00
  2.160  0.000E+00  0.000E+00
  2.170  0.000E+00  0.000E+00
  2.180  0.000E+00  0.000E+00
  2.190  0.000E+00  0.000E+00
  2.200  0.000E+00  0.000E+00
  2.210  0.000E+00  0.000E+00
  2.220  0.000E+00  0.000E+00
  2.230  0.000E+00  0.000E+00
  2.240  0.000E+00  0.000E+00
  2.250  0.000E+00  0.000E+00
  2.260  0.000E+00  0.000E+00
  2.270  0.000E+00  0.000E+00
  2.280  0.000E+00  0.000E+00
  2.290  0.000E+00  0.000E+00
  2.300  0.000E+00  0.000E+00
  2.310  0.000E+00  0.000E+00
  2.320  0.000E+00  0.000E+00
  2.330  0.000E+00  0.000E+00
  2.340  0.000E+00  0.000E+00
  2.350  0.000E+00  0.000E+00
  2.360  0.000E+00  0.000E+00
  2.370  0.000E+00  0.000E+00
  2.380  0.000E+00  0.000E+00
  2.390  0.000E+00  0.000E+00
  2.400  0.000E+00  0.000E+00
  2.410  0.000E+00  0.000E+00
  2.420  0.000E+00  0.000E+00
  2.430  0.000E+00  0.000E+00
  2.440  0.000E+00  0.000E+00
  2.450  0.000E+00  0.000E+00
  2.460  0.000E+00  0.000E+00
  2.470  0.000E+00  0.000E+00
  2.480  0.000E+00  0.000E+00
  2.490  0.000E+00  0.000E+00
  2.500  0.000E+00  0.000E+00
  2.510  0.000E+00  0.000E+00
  2.520  0.000E+00  0.000E+00
  2.530  0.000E+00  0.000E+00
  2.540  0.000E+00  0.000E+00
  2.550  0.000E+00  0.000E+00
  2.560  0.000E+00  0.000E+00
  2.570  0.000E+00  0.000E+00
  2.580  0.000E+00  0.000E+00
  2.590  0.000E+00  0.000E+00
  2.600  0.000E+00  0.000E+00
  2.610  0.000E+00  0.000E+00
  2.620  0.000E+00  0.000E+00
  2.630  0.000E+00  0.000E+00
  2.640  0.000E+00  0.000E+00
  2.650  0.000E+00  0.000E+00
  2.660  0.000E+00  0.000E+00
  2.670  0.000E+00  0.000E+00
  2.680  0.000E+00  0.000E+00
  2.690  0.000E+00  0.000E+00
  2.700  0.223E-13  0.223E-13
  2.710  0.468E-13  0.467E-13
  2.720  0.970E-13  0.967E-13
  2.730  0.301E-12  0.301E-12
  2.740  0.619E-12  0.617E-12
  2.750  0.126E-11  0.125E-11
  2.760  0.253E-11  0.252E-11
  2.770  0.537E-11  0.535E-11
  2.780  0.106E-10  0.106E-10
  2.790  0.208E-10  0.207E-10
  2.800  0.404E-10  0.402E-10
  2.810  0.774E-10  0.771E-10
  2.820  0.147E-09  0.146E-09
  2.830  0.276E-09  0.275E-09
  2.840  0.513E-09  0.511E-09
  2.850  0.943E-09  0.941E-09
  2.860  0.172E-08  0.171E-08
  2.870  0.310E-08  0.309E-08
  2.880  0.553E-08  0.552E-08
  2.890  0.977E-08  0.975E-08
  2.900  0.171E-07  0.170E-07
  2.910  0.296E-07  0.295E-07
  2.920  0.508E-07  0.506E-07
  2.930  0.861E-07  0.859E-07
  2.940  0.145E-06  0.144E-06
  2.950  0.241E-06  0.240E-06
  2.960  0.396E-06  0.395E-06
  2.970  0.646E-06  0.644E-06
  2.980  0.104E-05  0.104E-05
  2.990  0.167E-05  0.166E-05
  3.000  0.264E-05  0.263E-05
  3.010  0.413E-05  0.412E-05
  3.020  0.641E-05  0.639E-05
  3.030  0.984E-05  0.981E-05
  3.040  0.150E-04  0.149E-04
  3.050  0.225E-04  0.225E-04
  3.060  0.336E-04  0.335E-04
  3.070  0.496E-04  0.495E-04
  3.080  0.725E-04  0.723E-04
  3.090  0.105E-03  0.105E-03
  3.100  0.151E-03  0.150E-03
  3.110  0.214E-03  0.213E-03
  3.120  0.301E-03  0.300E-03
  3.130  0.419E-03  0.418E-03
  3.140  0.578E-03  0.577E-03
  3.150  0.791E-03  0.788E-03
  3.160  0.107E-02  0.107E-02
  3.170  0.144E-02  0.143E-02
  3.180  0.191E-02  0.190E-02
  3.190  0.251E-02  0.250E-02
  3.200  0.328E-02  0.327E-02
  3.210  0.423E-02  0.422E-02
  3.220  0.542E-02  0.541E-02
  3.230  0.689E-02  0.687E-02
  3.240  0.866E-02  0.864E-02
  3.250  0.108E-01  0.108E-01
  3.260  0.134E-01  0.133E-01
  3.270  0.164E-01  0.163E-01
  3.280  0.199E-01  0.199E-01
  3.290  0.240E-01  0.239E-01
  3.300  0.287E-01  0.286E-01
  3.310  0.341E-01  0.340E-01
  3.320  0.401E-01  0.400E-01
  3.330  0.468E-01  0.467E-01
  3.340  0.543E-01  0.542E-01
  3.350  0.625E-01  0.623E-01
  3.360  0.715E-01  0.713E-01
  3.370  0.811E-01  0.809E-01
  3.380  0.915E-01  0.912E-01
  3.390  0.102E+00  0.102E+00
  3.400  0.114E+00  0.114E+00
  3.410  0.126E+00  0.126E+00
  3.420  0.139E+00  0.139E+00
  3.430  0.152E+00  0.152E+00
  3.440  0.165E+00  0.165E+00
  3.450  0.179E+00  0.179E+00
  3.460  0.193E+00  0.192E+00
  3.470  0.207E+00  0.206E+00
  3.480  0.221E+00  0.220E+00
  3.490  0.235E+00  0.234E+00
  3.500  0.249E+00  0.248E+00
  3.510  0.263E+00  0.262E+00
  3.520  0.277E+00  0.276E+00
  3.530  0.290E+00  0.289E+00
  3.540  0.304E+00  0.303E+00
  3.550  0.317E+00  0.316E+00
  3.560  0.330E+00  0.329E+00
  3.570  0.343E+00  0.342E+00
  3.580  0.356E+00  0.355E+00
  3.590  0.368E+00  0.367E+00
  3.600  0.381E+00  0.380E+00
  3.610  0.393E+00  0.392E+00
  3.620  0.406E+00  0.405E+00
  3.630  0.418E+00  0.417E+00
  3.640  0.431E+00  0.430E+00
  3.650  0.443E+00  0.442E+00
  3.660  0.455E+00  0.454E+00
  3.670  0.468E+00  0.466E+00
  3.680  0.480E+00  0.478E+00
  3.690  0.492E+00  0.490E+00
  3.700  0.504E+00  0.503E+00
  3.710  0.516E+00  0.514E+00
  3.720  0.528E+00  0.526E+00
  3.730  0.540E+00  0.538E+00
  3.740  0.552E+00  0.550E+00
  3.750  0.564E+00  0.563E+00
  3.760  0.576E+00  0.575E+00
  3.770  0.589E+00  0.587E+00
  3.780  0.602E+00  0.600E+00
  3.790  0.615E+00  0.613E+00
  3.800  0.628E+00  0.627E+00
  3.810  0.642E+00  0.641E+00
  3.820  0.657E+00  0.655E+00
  3.830  0.672E+00  0.670E+00
  3.840  0.687E+00  0.686E+00
  3.850  0.704E+00  0.702E+00
  3.860  0.721E+00  0.719E+00
  3.870  0.738E+00  0.736E+00
  3.880  0.756E+00  0.755E+00
  3.890  0.775E+00  0.774E+00
  3.900  0.795E+00  0.794E+00
  3.910  0.816E+00  0.815E+00
  3.920  0.838E+00  0.837E+00
  3.930  0.862E+00  0.860E+00
  3.940  0.887E+00  0.885E+00
  3.950  0.914E+00  0.912E+00
  3.960  0.943E+00  0.941E+00
  3.970  0.975E+00  0.973E+00
  3.980  0.101E+01  0.101E+01
  3.990  0.105E+01  0.105E+01
  4.000  0.109E+01  0.109E+01
  4.010  0.114E+01  0.113E+01
  4.020  0.119E+01  0.118E+01
  4.030  0.124E+01  0.124E+01
  4.040  0.130E+01  0.130E+01
  4.050  0.137E+01  0.136E+01
  4.060  0.144E+01  0.143E+01
  4.070  0.151E+01  0.151E+01
  4.080  0.159E+01  0.159E+01
  4.090  0.167E+01  0.167E+01
  4.100  0.176E+01  0.176E+01
  4.110  0.185E+01  0.185E+01
  4.120  0.194E+01  0.194E+01
  4.130  0.203E+01  0.203E+01
  4.140  0.212E+01  0.212E+01
  4.150  0.221E+01  0.221E+01
  4.160  0.229E+01  0.229E+01
  4.170  0.237E+01  0.237E+01
  4.180  0.245E+01  0.244E+01
  4.190  0.251E+01  0.251E+01
  4.200  0.256E+01  0.256E+01
  4.210  0.261E+01  0.260E+01
  4.220  0.264E+01  0.264E+01
  4.230  0.266E+01  0.265E+01
  4.240  0.266E+01  0.266E+01
  4.250  0.266E+01  0.265E+01
  4.260  0.264E+01  0.263E+01
  4.270  0.260E+01  0.260E+01
  4.280  0.256E+01  0.256E+01
  4.290  0.250E+01  0.250E+01
  4.300  0.244E+01  0.243E+01
  4.310  0.236E+01  0.236E+01
  4.320  0.228E+01  0.228E+01
  4.330  0.219E+01  0.219E+01
  4.340  0.210E+01  0.210E+01
  4.350  0.201E+01  0.201E+01
  4.360  0.191E+01  0.191E+01
  4.370  0.182E+01  0.182E+01
  4.380  0.173E+01  0.173E+01
  4.390  0.164E+01  0.164E+01
  4.400  0.155E+01  0.155E+01
  4.410  0.147E+01  0.147E+01
  4.420  0.140E+01  0.139E+01
  4.430  0.133E+01  0.132E+01
  4.440  0.126E+01  0.126E+01
  4.450  0.120E+01  0.120E+01
  4.460  0.114E+01  0.114E+01
  4.470  0.109E+01  0.109E+01
  4.480  0.105E+01  0.105E+01
  4.490  0.101E+01  0.100E+01
  4.500  0.968E+00  0.966E+00
  4.510  0.934E+00  0.932E+00
  4.520  0.903E+00  0.901E+00
  4.530  0.875E+00  0.873E+00
  4.540  0.849E+00  0.847E+00
  4.550  0.825E+00  0.823E+00
  4.560  0.803E+00  0.801E+00
  4.570  0.783E+00  0.781E+00
  4.580  0.764E+00  0.762E+00
  4.590  0.747E+00  0.745E+00
  4.600  0.731E+00  0.729E+00
  4.610  0.717E+00  0.715E+00
  4.620  0.703E+00  0.701E+00
  4.630  0.691E+00  0.689E+00
  4.640  0.679E+00  0.678E+00
  4.650  0.669E+00  0.667E+00
  4.660  0.659E+00  0.657E+00
  4.670  0.650E+00  0.648E+00
  4.680  0.641E+00  0.639E+00
  4.690  0.633E+00  0.631E+00
  4.700  0.625E+00  0.623E+00
  4.710  0.617E+00  0.615E+00
  4.720  0.608E+00  0.607E+00
  4.730  0.600E+00  0.598E+00
  4.740  0.592E+00  0.590E+00
  4.750  0.583E+00  0.581E+00
  4.760  0.574E+00  0.572E+00
  4.770  0.564E+00  0.562E+00
  4.780  0.555E+00  0.553E+00
  4.790  0.545E+00  0.543E+00
  4.800  0.535E+00  0.534E+00
  4.810  0.526E+00  0.524E+00
  4.820  0.517E+00  0.515E+00
  4.830  0.508E+00  0.507E+00
  4.840  0.500E+00  0.499E+00
  4.850  0.493E+00  0.491E+00
  4.860  0.486E+00  0.485E+00
  4.870  0.480E+00  0.479E+00
  4.880  0.475E+00  0.474E+00
  4.890  0.471E+00  0.469E+00
  4.900  0.467E+00  0.466E+00
  4.910  0.464E+00  0.463E+00
  4.920  0.461E+00  0.460E+00
  4.930  0.459E+00  0.457E+00
  4.940  0.457E+00  0.455E+00
  4.950  0.455E+00  0.453E+00
  4.960  0.452E+00  0.451E+00
  4.970  0.450E+00  0.448E+00
  4.980  0.447E+00  0.445E+00
  4.990  0.444E+00  0.442E+00
  5.000  0.440E+00  0.438E+00
  5.010  0.436E+00  0.434E+00
  5.020  0.431E+00  0.430E+00
  5.030  0.426E+00  0.425E+00
  5.040  0.420E+00  0.419E+00
  5.050  0.414E+00  0.413E+00
  5.060  0.408E+00  0.407E+00
  5.070  0.402E+00  0.400E+00
  5.080  0.395E+00  0.393E+00
  5.090  0.388E+00  0.386E+00
  5.100  0.381E+00  0.379E+00
  5.110  0.374E+00  0.373E+00
  5.120  0.367E+00  0.366E+00
  5.130  0.361E+00  0.360E+00
  5.140  0.355E+00  0.354E+00
  5.150  0.350E+00  0.348E+00
  5.160  0.345E+00  0.343E+00
  5.170  0.341E+00  0.339E+00
  5.180  0.337E+00  0.336E+00
  5.190  0.334E+00  0.333E+00
  5.200  0.332E+00  0.331E+00
  5.210  0.331E+00  0.330E+00
  5.220  0.330E+00  0.329E+00
  5.230  0.330E+00  0.329E+00
  5.240  0.331E+00  0.329E+00
  5.250  0.331E+00  0.330E+00
  5.260  0.332E+00  0.330E+00
  5.270  0.333E+00  0.331E+00
  5.280  0.333E+00  0.332E+00
  5.290  0.334E+00  0.332E+00
  5.300  0.334E+00  0.332E+00
  5.310  0.333E+00  0.332E+00
  5.320  0.332E+00  0.330E+00
  5.330  0.330E+00  0.329E+00
  5.340  0.327E+00  0.326E+00
  5.350  0.324E+00  0.323E+00
  5.360  0.320E+00  0.319E+00
  5.370  0.316E+00  0.315E+00
  5.380  0.311E+00  0.310E+00
  5.390  0.306E+00  0.304E+00
  5.400  0.300E+00  0.299E+00
  5.410  0.294E+00  0.293E+00
  5.420  0.288E+00  0.287E+00
  5.430  0.282E+00  0.281E+00
  5.440  0.276E+00  0.275E+00
  5.450  0.270E+00  0.269E+00
  5.460  0.265E+00  0.264E+00
  5.470  0.260E+00  0.259E+00
  5.480  0.256E+00  0.255E+00
  5.490  0.252E+00  0.251E+00
  5.500  0.249E+00  0.248E+00
  5.510  0.247E+00  0.246E+00
  5.520  0.246E+00  0.245E+00
  5.530  0.245E+00  0.244E+00
  5.540  0.246E+00  0.245E+00
  5.550  0.247E+00  0.246E+00
  5.560  0.250E+00  0.248E+00
  5.570  0.253E+00  0.252E+00
  5.580  0.257E+00  0.256E+00
  5.590  0.263E+00  0.261E+00
  5.600  0.269E+00  0.268E+00
  5.610  0.276E+00  0.275E+00
  5.620  0.285E+00  0.283E+00
  5.630  0.294E+00  0.292E+00
  5.640  0.304E+00  0.303E+00
  5.650  0.315E+00  0.314E+00
  5.660  0.327E+00  0.326E+00
  5.670  0.341E+00  0.339E+00
  5.680  0.355E+00  0.353E+00
  5.690  0.370E+00  0.368E+00
  5.700  0.385E+00  0.384E+00
  5.710  0.402E+00  0.400E+00
  5.720  0.420E+00  0.418E+00
  5.730  0.438E+00  0.436E+00
  5.740  0.457E+00  0.455E+00
  5.750  0.477E+00  0.475E+00
  5.760  0.498E+00  0.496E+00
  5.770  0.519E+00  0.517E+00
  5.780  0.541E+00  0.540E+00
  5.790  0.564E+00  0.562E+00
  5.800  0.588E+00  0.586E+00
  5.810  0.612E+00  0.610E+00
  5.820  0.636E+00  0.634E+00
  5.830  0.661E+00  0.659E+00
  5.840  0.687E+00  0.685E+00
  5.850  0.713E+00  0.711E+00
  5.860  0.739E+00  0.737E+00
  5.870  0.766E+00  0.763E+00
  5.880  0.792E+00  0.790E+00
  5.890  0.819E+00  0.817E+00
  5.900  0.846E+00  0.844E+00
  5.910  0.873E+00  0.871E+00
  5.920  0.900E+00  0.897E+00
  5.930  0.926E+00  0.924E+00
  5.940  0.952E+00  0.950E+00
  5.950  0.978E+00  0.975E+00
  5.960  0.100E+01  0.999E+00
  5.970  0.103E+01  0.102E+01
  5.980  0.105E+01  0.105E+01
  5.990  0.107E+01  0.107E+01
  6.000  0.109E+01  0.109E+01
  6.010  0.111E+01  0.110E+01
  6.020  0.112E+01  0.112E+01
  6.030  0.114E+01  0.113E+01
  6.040  0.115E+01  0.115E+01
  6.050  0.116E+01  0.116E+01
  6.060  0.117E+01  0.116E+01
  6.070  0.117E+01  0.117E+01
  6.080  0.118E+01  0.117E+01
  6.090  0.118E+01  0.118E+01
  6.100  0.118E+01  0.118E+01
  6.110  0.118E+01  0.118E+01
  6.120  0.118E+01  0.117E+01
  6.130  0.117E+01  0.117E+01
  6.140  0.117E+01  0.117E+01
  6.150  0.117E+01  0.116E+01
  6.160  0.116E+01  0.116E+01
  6.170  0.115E+01  0.115E+01
  6.180  0.115E+01  0.114E+01
  6.190  0.114E+01  0.114E+01
  6.200  0.113E+01  0.113E+01
  6.210  0.113E+01  0.112E+01
  6.220  0.112E+01  0.112E+01
  6.230  0.111E+01  0.111E+01
  6.240  0.110E+01  0.110E+01
  6.250  0.110E+01  0.109E+01
  6.260  0.109E+01  0.109E+01
  6.270  0.109E+01  0.108E+01
  6.280  0.108E+01  0.108E+01
  6.290  0.108E+01  0.108E+01
  6.300  0.108E+01  0.107E+01
  6.310  0.108E+01  0.107E+01
  6.320  0.108E+01  0.107E+01
  6.330  0.108E+01  0.107E+01
  6.340  0.108E+01  0.108E+01
  6.350  0.108E+01  0.108E+01
  6.360  0.109E+01  0.108E+01
  6.370  0.109E+01  0.109E+01
  6.380  0.110E+01  0.110E+01
  6.390  0.111E+01  0.110E+01
  6.400  0.112E+01  0.111E+01
  6.410  0.112E+01  0.112E+01
  6.420  0.113E+01  0.113E+01
  6.430  0.114E+01  0.113E+01
  6.440  0.115E+01  0.114E+01
  6.450  0.115E+01  0.115E+01
  6.460  0.116E+01  0.115E+01
  6.470  0.116E+01  0.116E+01
  6.480  0.117E+01  0.117E+01
  6.490  0.118E+01  0.117E+01
  6.500  0.118E+01  0.118E+01
  6.510  0.119E+01  0.118E+01
  6.520  0.119E+01  0.119E+01
  6.530  0.119E+01  0.119E+01
  6.540  0.120E+01  0.119E+01
  6.550  0.120E+01  0.120E+01
  6.560  0.121E+01  0.120E+01
  6.570  0.121E+01  0.121E+01
  6.580  0.122E+01  0.121E+01
  6.590  0.122E+01  0.122E+01
  6.600  0.122E+01  0.122E+01
  6.610  0.123E+01  0.122E+01
  6.620  0.123E+01  0.123E+01
  6.630  0.124E+01  0.123E+01
  6.640  0.124E+01  0.124E+01
  6.650  0.125E+01  0.125E+01
  6.660  0.126E+01  0.125E+01
  6.670  0.127E+01  0.126E+01
  6.680  0.128E+01  0.127E+01
  6.690  0.129E+01  0.129E+01
  6.700  0.130E+01  0.130E+01
  6.710  0.132E+01  0.131E+01
  6.720  0.133E+01  0.133E+01
  6.730  0.135E+01  0.135E+01
  6.740  0.137E+01  0.137E+01
  6.750  0.139E+01  0.139E+01
  6.760  0.141E+01  0.141E+01
  6.770  0.143E+01  0.143E+01
  6.780  0.146E+01  0.145E+01
  6.790  0.148E+01  0.147E+01
  6.800  0.150E+01  0.149E+01
  6.810  0.152E+01  0.152E+01
  6.820  0.154E+01  0.154E+01
  6.830  0.156E+01  0.156E+01
  6.840  0.158E+01  0.157E+01
  6.850  0.159E+01  0.159E+01
  6.860  0.161E+01  0.160E+01
  6.870  0.162E+01  0.161E+01
  6.880  0.163E+01  0.162E+01
  6.890  0.164E+01  0.163E+01
  6.900  0.164E+01  0.164E+01
  6.910  0.165E+01  0.164E+01
  6.920  0.165E+01  0.164E+01
  6.930  0.165E+01  0.165E+01
  6.940  0.165E+01  0.165E+01
  6.950  0.165E+01  0.164E+01
  6.960  0.165E+01  0.164E+01
  6.970  0.165E+01  0.164E+01
  6.980  0.165E+01  0.164E+01
  6.990  0.165E+01  0.164E+01
  7.000  0.165E+01  0.164E+01
  7.010  0.165E+01  0.164E+01
  7.020  0.165E+01  0.165E+01
  7.030  0.165E+01  0.165E+01
  7.040  0.166E+01  0.165E+01
  7.050  0.166E+01  0.166E+01
  7.060  0.167E+01  0.166E+01
  7.070  0.167E+01  0.167E+01
  7.080  0.168E+01  0.167E+01
  7.090  0.168E+01  0.168E+01
  7.100  0.169E+01  0.168E+01
  7.110  0.169E+01  0.168E+01
  7.120  0.169E+01  0.169E+01
  7.130  0.170E+01  0.169E+01
  7.140  0.170E+01  0.170E+01
  7.150  0.170E+01  0.170E+01
  7.160  0.171E+01  0.170E+01
  7.170  0.171E+01  0.170E+01
  7.180  0.171E+01  0.170E+01
  7.190  0.171E+01  0.170E+01
  7.200  0.171E+01  0.170E+01
  7.210  0.171E+01  0.170E+01
  7.220  0.171E+01  0.170E+01
  7.230  0.171E+01  0.170E+01
  7.240  0.171E+01  0.170E+01
  7.250  0.170E+01  0.170E+01
  7.260  0.170E+01  0.169E+01
  7.270  0.170E+01  0.169E+01
  7.280  0.169E+01  0.168E+01
  7.290  0.169E+01  0.168E+01
  7.300  0.168E+01  0.167E+01
  7.310  0.168E+01  0.167E+01
  7.320  0.167E+01  0.166E+01
  7.330  0.167E+01  0.166E+01
  7.340  0.166E+01  0.165E+01
  7.350  0.166E+01  0.165E+01
  7.360  0.166E+01  0.165E+01
  7.370  0.165E+01  0.165E+01
  7.380  0.166E+01  0.165E+01
  7.390  0.166E+01  0.165E+01
  7.400  0.166E+01  0.165E+01
  7.410  0.167E+01  0.166E+01
  7.420  0.167E+01  0.167E+01
  7.430  0.168E+01  0.167E+01
  7.440  0.169E+01  0.168E+01
  7.450  0.170E+01  0.169E+01
  7.460  0.170E+01  0.170E+01
  7.470  0.171E+01  0.171E+01
  7.480  0.172E+01  0.171E+01
  7.490  0.173E+01  0.172E+01
  7.500  0.173E+01  0.172E+01
  7.510  0.173E+01  0.173E+01
  7.520  0.174E+01  0.173E+01
  7.530  0.174E+01  0.173E+01
  7.540  0.173E+01  0.173E+01
  7.550  0.173E+01  0.172E+01
  7.560  0.173E+01  0.172E+01
  7.570  0.172E+01  0.171E+01
  7.580  0.172E+01  0.171E+01
  7.590  0.171E+01  0.170E+01
  7.600  0.170E+01  0.170E+01
  7.610  0.170E+01  0.169E+01
  7.620  0.169E+01  0.169E+01
  7.630  0.169E+01  0.168E+01
  7.640  0.168E+01  0.168E+01
  7.650  0.168E+01  0.167E+01
  7.660  0.168E+01  0.167E+01
  7.670  0.168E+01  0.167E+01
  7.680  0.168E+01  0.167E+01
  7.690  0.168E+01  0.167E+01
  7.700  0.168E+01  0.168E+01
  7.710  0.169E+01  0.168E+01
  7.720  0.169E+01  0.169E+01
  7.730  0.170E+01  0.169E+01
  7.740  0.171E+01  0.170E+01
  7.750  0.171E+01  0.170E+01
  7.760  0.172E+01  0.171E+01
  7.770  0.172E+01  0.172E+01
  7.780  0.173E+01  0.172E+01
  7.790  0.174E+01  0.173E+01
  7.800  0.174E+01  0.173E+01
  7.810  0.174E+01  0.174E+01
  7.820  0.175E+01  0.174E+01
  7.830  0.175E+01  0.174E+01
  7.840  0.175E+01  0.174E+01
  7.850  0.175E+01  0.175E+01
  7.860  0.175E+01  0.175E+01
  7.870  0.175E+01  0.175E+01
  7.880  0.175E+01  0.175E+01
  7.890  0.175E+01  0.174E+01
  7.900  0.175E+01  0.174E+01
  7.910  0.175E+01  0.174E+01
  7.920  0.175E+01  0.174E+01
  7.930  0.175E+01  0.174E+01
  7.940  0.174E+01  0.174E+01
  7.950  0.174E+01  0.173E+01
  7.960  0.174E+01  0.173E+01
  7.970  0.174E+01  0.173E+01
  7.980  0.174E+01  0.173E+01
  7.990  0.174E+01  0.173E+01
  8.000  0.174E+01  0.173E+01
  8.010  0.174E+01  0.173E+01
  8.020  0.174E+01  0.173E+01
  8.030  0.174E+01  0.174E+01
  8.040  0.175E+01  0.174E+01
  8.050  0.175E+01  0.174E+01
  8.060  0.175E+01  0.174E+01
  8.070  0.175E+01  0.174E+01
  8.080  0.175E+01  0.174E+01
  8.090  0.175E+01  0.174E+01
  8.100  0.174E+01  0.173E+01
  8.110  0.174E+01  0.173E+01
  8.120  0.173E+01  0.172E+01
  8.130  0.172E+01  0.172E+01
  8.140  0.171E+01  0.171E+01
  8.150  0.170E+01  0.169E+01
  8.160  0.169E+01  0.168E+01
  8.170  0.167E+01  0.166E+01
  8.180  0.166E+01  0.165E+01
  8.190  0.164E+01  0.163E+01
  8.200  0.161E+01  0.161E+01
  8.210  0.159E+01  0.158E+01
  8.220  0.157E+01  0.156E+01
  8.230  0.154E+01  0.153E+01
  8.240  0.152E+01  0.151E+01
  8.250  0.149E+01  0.148E+01
  8.260  0.146E+01  0.146E+01
  8.270  0.144E+01  0.143E+01
  8.280  0.141E+01  0.140E+01
  8.290  0.138E+01  0.138E+01
  8.300  0.136E+01  0.135E+01
  8.310  0.133E+01  0.132E+01
  8.320  0.131E+01  0.130E+01
  8.330  0.128E+01  0.127E+01
  8.340  0.126E+01  0.125E+01
  8.350  0.123E+01  0.123E+01
  8.360  0.121E+01  0.120E+01
  8.370  0.119E+01  0.118E+01
  8.380  0.116E+01  0.116E+01
  8.390  0.114E+01  0.114E+01
  8.400  0.112E+01  0.111E+01
  8.410  0.110E+01  0.109E+01
  8.420  0.108E+01  0.107E+01
  8.430  0.106E+01  0.105E+01
  8.440  0.104E+01  0.103E+01
  8.450  0.102E+01  0.101E+01
  8.460  0.100E+01  0.996E+00
  8.470  0.984E+00  0.978E+00
  8.480  0.967E+00  0.961E+00
  8.490  0.950E+00  0.944E+00
  8.500  0.934E+00  0.927E+00
  8.510  0.918E+00  0.912E+00
  8.520  0.902E+00  0.896E+00
  8.530  0.887E+00  0.881E+00
  8.540  0.872E+00  0.866E+00
  8.550  0.858E+00  0.852E+00
  8.560  0.844E+00  0.838E+00
  8.570  0.830E+00  0.824E+00
  8.580  0.816E+00  0.810E+00
  8.590  0.802E+00  0.796E+00
  8.600  0.788E+00  0.782E+00
  8.610  0.774E+00  0.768E+00
  8.620  0.760E+00  0.755E+00
  8.630  0.746E+00  0.741E+00
  8.640  0.732E+00  0.727E+00
  8.650  0.718E+00  0.713E+00
  8.660  0.704E+00  0.699E+00
  8.670  0.690E+00  0.685E+00
  8.680  0.676E+00  0.671E+00
  8.690  0.662E+00  0.657E+00
  8.700  0.648E+00  0.643E+00
  8.710  0.634E+00  0.629E+00
  8.720  0.620E+00  0.615E+00
  8.730  0.606E+00  0.601E+00
  8.740  0.592E+00  0.587E+00
  8.750  0.578E+00  0.573E+00
  8.760  0.564E+00  0.559E+00
  8.770  0.549E+00  0.545E+00
  8.780  0.535E+00  0.531E+00
  8.790  0.520E+00  0.516E+00
  8.800  0.506E+00  0.501E+00
  8.810  0.491E+00  0.486E+00
  8.820  0.475E+00  0.471E+00
  8.830  0.460E+00  0.456E+00
  8.840  0.444E+00  0.440E+00
  8.850  0.427E+00  0.424E+00
  8.860  0.411E+00  0.407E+00
  8.870  0.394E+00  0.390E+00
  8.880  0.376E+00  0.373E+00
  8.890  0.359E+00  0.356E+00
  8.900  0.341E+00  0.338E+00
  8.910  0.322E+00  0.320E+00
  8.920  0.304E+00  0.301E+00
  8.930  0.286E+00  0.283E+00
  8.940  0.267E+00  0.265E+00
  8.950  0.249E+00  0.247E+00
  8.960  0.231E+00  0.229E+00
  8.970  0.213E+00  0.211E+00
  8.980  0.195E+00  0.193E+00
  8.990  0.178E+00  0.176E+00
  9.000  0.161E+00  0.160E+00
  9.010  0.146E+00  0.144E+00
  9.020  0.131E+00  0.129E+00
  9.030  0.116E+00  0.115E+00
  9.040  0.103E+00  0.102E+00
  9.050  0.906E-01  0.898E-01
  9.060  0.792E-01  0.785E-01
  9.070  0.688E-01  0.682E-01
  9.080  0.594E-01  0.588E-01
  9.090  0.509E-01  0.504E-01
  9.100  0.434E-01  0.430E-01
  9.110  0.368E-01  0.365E-01
  9.120  0.311E-01  0.308E-01
  9.130  0.262E-01  0.259E-01
  9.140  0.220E-01  0.218E-01
  9.150  0.186E-01  0.184E-01
  9.160  0.158E-01  0.156E-01
  9.170  0.135E-01  0.134E-01
  9.180  0.117E-01  0.116E-01
  9.190  0.104E-01  0.103E-01
  9.200  0.942E-02  0.931E-02
  9.210  0.875E-02  0.866E-02
  9.220  0.835E-02  0.825E-02
  9.230  0.815E-02  0.805E-02
  9.240  0.811E-02  0.801E-02
  9.250  0.819E-02  0.809E-02
  9.260  0.836E-02  0.826E-02
  9.270  0.859E-02  0.848E-02
  9.280  0.885E-02  0.874E-02
  9.290  0.911E-02  0.899E-02
  9.300  0.936E-02  0.924E-02
  9.310  0.958E-02  0.946E-02
  9.320  0.977E-02  0.964E-02
  9.330  0.991E-02  0.979E-02
  9.340  0.100E-01  0.988E-02
  9.350  0.101E-01  0.994E-02
  9.360  0.101E-01  0.995E-02
  9.370  0.101E-01  0.992E-02
  9.380  0.100E-01  0.987E-02
  9.390  0.993E-02  0.980E-02
  9.400  0.985E-02  0.973E-02
  9.410  0.978E-02  0.965E-02
  9.420  0.972E-02  0.960E-02
  9.430  0.970E-02  0.957E-02
  9.440  0.971E-02  0.958E-02
  9.450  0.978E-02  0.965E-02
  9.460  0.990E-02  0.977E-02
  9.470  0.101E-01  0.997E-02
  9.480  0.104E-01  0.102E-01
  9.490  0.107E-01  0.106E-01
  9.500  0.112E-01  0.110E-01
  9.510  0.117E-01  0.115E-01
  9.520  0.123E-01  0.121E-01
  9.530  0.130E-01  0.128E-01
  9.540  0.137E-01  0.136E-01
  9.550  0.146E-01  0.144E-01
  9.560  0.155E-01  0.153E-01
  9.570  0.165E-01  0.162E-01
  9.580  0.175E-01  0.172E-01
  9.590  0.185E-01  0.183E-01
  9.600  0.196E-01  0.194E-01
  9.610  0.208E-01  0.205E-01
  9.620  0.219E-01  0.216E-01
  9.630  0.230E-01  0.227E-01
  9.640  0.241E-01  0.237E-01
  9.650  0.251E-01  0.247E-01
  9.660  0.260E-01  0.257E-01
  9.670  0.269E-01  0.265E-01
  9.680  0.276E-01  0.272E-01
  9.690  0.282E-01  0.278E-01
  9.700  0.287E-01  0.283E-01
  9.710  0.289E-01  0.285E-01
  9.720  0.290E-01  0.286E-01
  9.730  0.290E-01  0.286E-01
  9.740  0.287E-01  0.283E-01
  9.750  0.284E-01  0.280E-01
  9.760  0.279E-01  0.275E-01
  9.770  0.274E-01  0.270E-01
  9.780  0.267E-01  0.264E-01
  9.790  0.261E-01  0.258E-01
  9.800  0.256E-01  0.252E-01
  9.810  0.251E-01  0.248E-01
  9.820  0.248E-01  0.245E-01
  9.830  0.247E-01  0.243E-01
  9.840  0.247E-01  0.244E-01
  9.850  0.250E-01  0.247E-01
  9.860  0.256E-01  0.252E-01
  9.870  0.264E-01  0.260E-01
  9.880  0.275E-01  0.271E-01
  9.890  0.288E-01  0.284E-01
  9.900  0.304E-01  0.299E-01
  9.910  0.322E-01  0.317E-01
  9.920  0.341E-01  0.336E-01
  9.930  0.361E-01  0.356E-01
  9.940  0.383E-01  0.377E-01
  9.950  0.404E-01  0.399E-01
  9.960  0.426E-01  0.420E-01
  9.970  0.447E-01  0.440E-01
  9.980  0.467E-01  0.460E-01
  9.990  0.485E-01  0.478E-01
 10.000  0.502E-01  0.494E-01
 10.010  0.516E-01  0.508E-01
 10.020  0.528E-01  0.520E-01
 10.030  0.538E-01  0.530E-01
 10.040  0.545E-01  0.537E-01
 10.050  0.549E-01  0.541E-01
 10.060  0.552E-01  0.543E-01
 10.070  0.551E-01  0.543E-01
 10.080  0.549E-01  0.541E-01
 10.090  0.544E-01  0.536E-01
 10.100  0.538E-01  0.530E-01
 10.110  0.531E-01  0.523E-01
 10.120  0.523E-01  0.515E-01
 10.130  0.514E-01  0.507E-01
 10.140  0.506E-01  0.499E-01
 10.150  0.499E-01  0.491E-01
 10.160  0.492E-01  0.485E-01
 10.170  0.487E-01  0.480E-01
 10.180  0.485E-01  0.477E-01
 10.190  0.485E-01  0.477E-01
 10.200  0.488E-01  0.480E-01
 10.210  0.493E-01  0.486E-01
 10.220  0.503E-01  0.495E-01
 10.230  0.515E-01  0.507E-01
 10.240  0.530E-01  0.522E-01
 10.250  0.549E-01  0.541E-01
 10.260  0.570E-01  0.562E-01
 10.270  0.594E-01  0.585E-01
 10.280  0.620E-01  0.610E-01
 10.290  0.647E-01  0.637E-01
 10.300  0.675E-01  0.664E-01
 10.310  0.703E-01  0.692E-01
 10.320  0.731E-01  0.720E-01
 10.330  0.758E-01  0.746E-01
 10.340  0.783E-01  0.771E-01
 10.350  0.807E-01  0.794E-01
 10.360  0.828E-01  0.815E-01
 10.370  0.847E-01  0.833E-01
 10.380  0.862E-01  0.849E-01
 10.390  0.875E-01  0.861E-01
 10.400  0.885E-01  0.871E-01
 10.410  0.891E-01  0.877E-01
 10.420  0.895E-01  0.881E-01
 10.430  0.897E-01  0.882E-01
 10.440  0.896E-01  0.882E-01
 10.450  0.893E-01  0.879E-01
 10.460  0.889E-01  0.875E-01
 10.470  0.884E-01  0.870E-01
 10.480  0.878E-01  0.864E-01
 10.490  0.872E-01  0.858E-01
 10.500  0.866E-01  0.853E-01
 10.510  0.861E-01  0.847E-01
 10.520  0.857E-01  0.843E-01
 10.530  0.853E-01  0.839E-01
 10.540  0.851E-01  0.837E-01
 10.550  0.851E-01  0.837E-01
 10.560  0.852E-01  0.838E-01
 10.570  0.855E-01  0.841E-01
 10.580  0.861E-01  0.847E-01
 10.590  0.869E-01  0.855E-01
 10.600  0.880E-01  0.865E-01
 10.610  0.893E-01  0.879E-01
 10.620  0.910E-01  0.895E-01
 10.630  0.929E-01  0.914E-01
 10.640  0.952E-01  0.936E-01
 10.650  0.977E-01  0.961E-01
 10.660  0.101E+00  0.989E-01
 10.670  0.104E+00  0.102E+00
 10.680  0.107E+00  0.105E+00
 10.690  0.110E+00  0.109E+00
 10.700  0.114E+00  0.112E+00
 10.710  0.118E+00  0.116E+00
 10.720  0.121E+00  0.119E+00
 10.730  0.125E+00  0.123E+00
 10.740  0.128E+00  0.126E+00
 10.750  0.131E+00  0.129E+00
 10.760  0.134E+00  0.132E+00
 10.770  0.137E+00  0.134E+00
 10.780  0.139E+00  0.136E+00
 10.790  0.140E+00  0.138E+00
 10.800  0.142E+00  0.139E+00
 10.810  0.142E+00  0.140E+00
 10.820  0.143E+00  0.140E+00
 10.830  0.142E+00  0.140E+00
 10.840  0.142E+00  0.139E+00
 10.850  0.141E+00  0.138E+00
 10.860  0.140E+00  0.137E+00
 10.870  0.138E+00  0.136E+00
 10.880  0.137E+00  0.134E+00
 10.890  0.135E+00  0.133E+00
 10.900  0.133E+00  0.131E+00
 10.910  0.132E+00  0.129E+00
 10.920  0.130E+00  0.128E+00
 10.930  0.129E+00  0.127E+00
 10.940  0.128E+00  0.126E+00
 10.950  0.127E+00  0.125E+00
 10.960  0.127E+00  0.125E+00
 10.970  0.128E+00  0.126E+00
 10.980  0.129E+00  0.127E+00
 10.990  0.131E+00  0.129E+00
 11.000  0.134E+00  0.131E+00
 11.010  0.137E+00  0.135E+00
 11.020  0.141E+00  0.139E+00
 11.030  0.146E+00  0.143E+00
 11.040  0.151E+00  0.148E+00
 11.050  0.157E+00  0.154E+00
 11.060  0.163E+00  0.160E+00
 11.070  0.169E+00  0.166E+00
 11.080  0.176E+00  0.172E+00
 11.090  0.182E+00  0.179E+00
 11.100  0.188E+00  0.184E+00
 11.110  0.193E+00  0.190E+00
 11.120  0.198E+00  0.195E+00
 11.130  0.203E+00  0.199E+00
 11.140  0.206E+00  0.202E+00
 11.150  0.209E+00  0.205E+00
 11.160  0.211E+00  0.207E+00
 11.170  0.212E+00  0.208E+00
 11.180  0.212E+00  0.208E+00
 11.190  0.211E+00  0.207E+00
 11.200  0.209E+00  0.205E+00
 11.210  0.208E+00  0.203E+00
 11.220  0.205E+00  0.201E+00
 11.230  0.202E+00  0.198E+00
 11.240  0.200E+00  0.196E+00
 11.250  0.197E+00  0.193E+00
 11.260  0.194E+00  0.190E+00
 11.270  0.191E+00  0.188E+00
 11.280  0.189E+00  0.186E+00
 11.290  0.188E+00  0.184E+00
 11.300  0.187E+00  0.183E+00
 11.310  0.187E+00  0.183E+00
 11.320  0.187E+00  0.183E+00
 11.330  0.188E+00  0.184E+00
 11.340  0.190E+00  0.186E+00
 11.350  0.193E+00  0.189E+00
 11.360  0.197E+00  0.193E+00
 11.370  0.202E+00  0.197E+00
 11.380  0.207E+00  0.203E+00
 11.390  0.213E+00  0.208E+00
 11.400  0.219E+00  0.215E+00
 11.410  0.226E+00  0.222E+00
 11.420  0.234E+00  0.229E+00
 11.430  0.241E+00  0.236E+00
 11.440  0.248E+00  0.243E+00
 11.450  0.256E+00  0.250E+00
 11.460  0.263E+00  0.257E+00
 11.470  0.269E+00  0.263E+00
 11.480  0.275E+00  0.269E+00
 11.490  0.280E+00  0.274E+00
 11.500  0.285E+00  0.278E+00
 11.510  0.288E+00  0.282E+00
 11.520  0.291E+00  0.285E+00
 11.530  0.293E+00  0.287E+00
 11.540  0.295E+00  0.288E+00
 11.550  0.296E+00  0.289E+00
 11.560  0.296E+00  0.290E+00
 11.570  0.296E+00  0.290E+00
 11.580  0.296E+00  0.289E+00
 11.590  0.296E+00  0.289E+00
 11.600  0.295E+00  0.288E+00
 11.610  0.295E+00  0.288E+00
 11.620  0.294E+00  0.288E+00
 11.630  0.294E+00  0.288E+00
 11.640  0.295E+00  0.288E+00
 11.650  0.295E+00  0.288E+00
 11.660  0.296E+00  0.289E+00
 11.670  0.298E+00  0.290E+00
 11.680  0.300E+00  0.292E+00
 11.690  0.302E+00  0.295E+00
 11.700  0.305E+00  0.298E+00
 11.710  0.309E+00  0.301E+00
 11.720  0.313E+00  0.305E+00
 11.730  0.317E+00  0.310E+00
 11.740  0.323E+00  0.315E+00
 11.750  0.329E+00  0.320E+00
 11.760  0.336E+00  0.327E+00
 11.770  0.343E+00  0.334E+00
 11.780  0.351E+00  0.341E+00
 11.790  0.359E+00  0.350E+00
 11.800  0.369E+00  0.359E+00
 11.810  0.379E+00  0.368E+00
 11.820  0.389E+00  0.378E+00
 11.830  0.400E+00  0.389E+00
 11.840  0.412E+00  0.400E+00
 11.850  0.424E+00  0.412E+00
 11.860  0.437E+00  0.424E+00
 11.870  0.450E+00  0.437E+00
 11.880  0.464E+00  0.449E+00
 11.890  0.477E+00  0.462E+00
 11.900  0.491E+00  0.475E+00
 11.910  0.505E+00  0.488E+00
 11.920  0.518E+00  0.501E+00
 11.930  0.531E+00  0.513E+00
 11.940  0.544E+00  0.525E+00
 11.950  0.556E+00  0.537E+00
 11.960  0.568E+00  0.547E+00
 11.970  0.579E+00  0.558E+00
 11.980  0.589E+00  0.567E+00
 11.990  0.599E+00  0.576E+00
 12.000  0.608E+00  0.584E+00
 12.010  0.616E+00  0.592E+00
 12.020  0.624E+00  0.599E+00
 12.030  0.632E+00  0.606E+00
 12.040  0.639E+00  0.613E+00
 12.050  0.647E+00  0.620E+00
 12.060  0.654E+00  0.626E+00
 12.070  0.661E+00  0.633E+00
 12.080  0.669E+00  0.639E+00
 12.090  0.676E+00  0.646E+00
 12.100  0.684E+00  0.653E+00
 12.110  0.692E+00  0.661E+00
 12.120  0.701E+00  0.669E+00
 12.130  0.709E+00  0.676E+00
 12.140  0.718E+00  0.684E+00
 12.150  0.726E+00  0.692E+00
 12.160  0.735E+00  0.700E+00
 12.170  0.743E+00  0.707E+00
 12.180  0.750E+00  0.714E+00
 12.190  0.757E+00  0.721E+00
 12.200  0.764E+00  0.727E+00
 12.210  0.769E+00  0.732E+00
 12.220  0.774E+00  0.736E+00
 12.230  0.778E+00  0.740E+00
 12.240  0.782E+00  0.743E+00
 12.250  0.784E+00  0.746E+00
 12.260  0.786E+00  0.748E+00
 12.270  0.788E+00  0.749E+00
 12.280  0.789E+00  0.750E+00
 12.290  0.789E+00  0.751E+00
 12.300  0.790E+00  0.751E+00
 12.310  0.790E+00  0.752E+00
 12.320  0.790E+00  0.752E+00
 12.330  0.791E+00  0.752E+00
 12.340  0.791E+00  0.753E+00
 12.350  0.792E+00  0.754E+00
 12.360  0.793E+00  0.755E+00
 12.370  0.794E+00  0.756E+00
 12.380  0.796E+00  0.757E+00
 12.390  0.797E+00  0.758E+00
 12.400  0.799E+00  0.760E+00
 12.410  0.801E+00  0.762E+00
 12.420  0.803E+00  0.763E+00
 12.430  0.805E+00  0.764E+00
 12.440  0.806E+00  0.766E+00
 12.450  0.807E+00  0.766E+00
 12.460  0.808E+00  0.767E+00
 12.470  0.808E+00  0.767E+00
 12.480  0.808E+00  0.766E+00
 12.490  0.807E+00  0.765E+00
 12.500  0.805E+00  0.763E+00
 12.510  0.803E+00  0.760E+00
 12.520  0.799E+00  0.757E+00
 12.530  0.796E+00  0.753E+00
 12.540  0.791E+00  0.749E+00
 12.550  0.786E+00  0.744E+00
 12.560  0.781E+00  0.739E+00
 12.570  0.775E+00  0.734E+00
 12.580  0.770E+00  0.729E+00
 12.590  0.765E+00  0.724E+00
 12.600  0.760E+00  0.720E+00
 12.610  0.756E+00  0.716E+00
 12.620  0.752E+00  0.713E+00
 12.630  0.750E+00  0.711E+00
 12.640  0.749E+00  0.711E+00
 12.650  0.750E+00  0.711E+00
 12.660  0.752E+00  0.713E+00
 12.670  0.756E+00  0.717E+00
 12.680  0.761E+00  0.721E+00
 12.690  0.768E+00  0.728E+00
 12.700  0.776E+00  0.735E+00
 12.710  0.785E+00  0.744E+00
 12.720  0.795E+00  0.753E+00
 12.730  0.806E+00  0.763E+00
 12.740  0.816E+00  0.772E+00
 12.750  0.826E+00  0.782E+00
 12.760  0.836E+00  0.790E+00
 12.770  0.844E+00  0.798E+00
 12.780  0.850E+00  0.803E+00
 12.790  0.854E+00  0.807E+00
 12.800  0.856E+00  0.808E+00
 12.810  0.855E+00  0.807E+00
 12.820  0.851E+00  0.804E+00
 12.830  0.844E+00  0.798E+00
 12.840  0.835E+00  0.789E+00
 12.850  0.824E+00  0.778E+00
 12.860  0.811E+00  0.766E+00
 12.870  0.796E+00  0.752E+00
 12.880  0.781E+00  0.737E+00
 12.890  0.765E+00  0.722E+00
 12.900  0.749E+00  0.707E+00
 12.910  0.735E+00  0.694E+00
 12.920  0.722E+00  0.682E+00
 12.930  0.712E+00  0.672E+00
 12.940  0.704E+00  0.664E+00
 12.950  0.698E+00  0.659E+00
 12.960  0.696E+00  0.657E+00
 12.970  0.698E+00  0.658E+00
 12.980  0.702E+00  0.661E+00
 12.990  0.709E+00  0.668E+00
 13.000  0.718E+00  0.676E+00
 13.010  0.729E+00  0.687E+00
 13.020  0.742E+00  0.698E+00
 13.030  0.755E+00  0.711E+00
 13.040  0.769E+00  0.724E+00
 13.050  0.782E+00  0.736E+00
 13.060  0.794E+00  0.747E+00
 13.070  0.804E+00  0.757E+00
 13.080  0.813E+00  0.765E+00
 13.090  0.819E+00  0.771E+00
 13.100  0.823E+00  0.774E+00
 13.110  0.825E+00  0.776E+00
 13.120  0.823E+00  0.774E+00
 13.130  0.820E+00  0.771E+00
 13.140  0.814E+00  0.765E+00
 13.150  0.806E+00  0.758E+00
 13.160  0.796E+00  0.749E+00
 13.170  0.785E+00  0.739E+00
 13.180  0.774E+00  0.728E+00
 13.190  0.762E+00  0.717E+00
 13.200  0.750E+00  0.706E+00
 13.210  0.739E+00  0.695E+00
 13.220  0.729E+00  0.686E+00
 13.230  0.719E+00  0.677E+00
 13.240  0.711E+00  0.669E+00
 13.250  0.705E+00  0.662E+00
 13.260  0.700E+00  0.657E+00
 13.270  0.696E+00  0.654E+00
 13.280  0.694E+00  0.652E+00
 13.290  0.694E+00  0.651E+00
 13.300  0.695E+00  0.651E+00
 13.310  0.696E+00  0.653E+00
 13.320  0.699E+00  0.655E+00
 13.330  0.702E+00  0.657E+00
 13.340  0.705E+00  0.660E+00
 13.350  0.708E+00  0.662E+00
 13.360  0.711E+00  0.665E+00
 13.370  0.713E+00  0.667E+00
 13.380  0.715E+00  0.668E+00
 13.390  0.716E+00  0.669E+00
 13.400  0.716E+00  0.669E+00
 13.410  0.716E+00  0.669E+00
 13.420  0.714E+00  0.667E+00
 13.430  0.712E+00  0.665E+00
 13.440  0.709E+00  0.663E+00
 13.450  0.706E+00  0.660E+00
 13.460  0.703E+00  0.657E+00
 13.470  0.699E+00  0.653E+00
 13.480  0.695E+00  0.650E+00
 13.490  0.691E+00  0.647E+00
 13.500  0.688E+00  0.644E+00
 13.510  0.685E+00  0.641E+00
 13.520  0.682E+00  0.639E+00
 13.530  0.680E+00  0.637E+00
 13.540  0.678E+00  0.635E+00
 13.550  0.677E+00  0.634E+00
 13.560  0.677E+00  0.634E+00
 13.570  0.677E+00  0.633E+00
 13.580  0.677E+00  0.633E+00
 13.590  0.676E+00  0.633E+00
 13.600  0.676E+00  0.632E+00
 13.610  0.676E+00  0.631E+00
 13.620  0.674E+00  0.630E+00
 13.630  0.672E+00  0.627E+00
 13.640  0.669E+00  0.624E+00
 13.650  0.665E+00  0.620E+00
 13.660  0.659E+00  0.614E+00
 13.670  0.653E+00  0.608E+00
 13.680  0.645E+00  0.600E+00
 13.690  0.637E+00  0.592E+00
 13.700  0.628E+00  0.584E+00
 13.710  0.618E+00  0.575E+00
 13.720  0.609E+00  0.565E+00
 13.730  0.599E+00  0.557E+00
 13.740  0.591E+00  0.548E+00
 13.750  0.583E+00  0.541E+00
 13.760  0.576E+00  0.535E+00
 13.770  0.570E+00  0.529E+00
 13.780  0.566E+00  0.526E+00
 13.790  0.563E+00  0.523E+00
 13.800  0.562E+00  0.523E+00
 13.810  0.563E+00  0.523E+00
 13.820  0.564E+00  0.525E+00
 13.830  0.567E+00  0.528E+00
 13.840  0.571E+00  0.531E+00
 13.850  0.575E+00  0.535E+00
 13.860  0.579E+00  0.539E+00
 13.870  0.583E+00  0.543E+00
 13.880  0.587E+00  0.546E+00
 13.890  0.589E+00  0.548E+00
 13.900  0.591E+00  0.550E+00
 13.910  0.592E+00  0.550E+00
 13.920  0.591E+00  0.549E+00
 13.930  0.588E+00  0.547E+00
 13.940  0.584E+00  0.543E+00
 13.950  0.579E+00  0.538E+00
 13.960  0.572E+00  0.531E+00
 13.970  0.564E+00  0.523E+00
 13.980  0.555E+00  0.515E+00
 13.990  0.545E+00  0.505E+00
 14.000  0.535E+00  0.495E+00
 14.010  0.524E+00  0.485E+00
 14.020  0.513E+00  0.475E+00
 14.030  0.502E+00  0.464E+00
 14.040  0.491E+00  0.455E+00
 14.050  0.481E+00  0.445E+00
 14.060  0.472E+00  0.436E+00
 14.070  0.464E+00  0.428E+00
 14.080  0.456E+00  0.421E+00
 14.090  0.450E+00  0.415E+00
 14.100  0.444E+00  0.410E+00
 14.110  0.440E+00  0.405E+00
 14.120  0.436E+00  0.402E+00
 14.130  0.432E+00  0.398E+00
 14.140  0.430E+00  0.396E+00
 14.150  0.427E+00  0.393E+00
 14.160  0.424E+00  0.390E+00
 14.170  0.422E+00  0.387E+00
 14.180  0.418E+00  0.384E+00
 14.190  0.414E+00  0.381E+00
 14.200  0.410E+00  0.376E+00
 14.210  0.404E+00  0.371E+00
 14.220  0.397E+00  0.364E+00
 14.230  0.389E+00  0.357E+00
 14.240  0.380E+00  0.348E+00
 14.250  0.370E+00  0.339E+00
 14.260  0.359E+00  0.328E+00
 14.270  0.347E+00  0.317E+00
 14.280  0.333E+00  0.305E+00
 14.290  0.320E+00  0.292E+00
 14.300  0.306E+00  0.279E+00
 14.310  0.291E+00  0.266E+00
 14.320  0.277E+00  0.253E+00
 14.330  0.262E+00  0.240E+00
 14.340  0.249E+00  0.227E+00
 14.350  0.236E+00  0.215E+00
 14.360  0.223E+00  0.204E+00
 14.370  0.212E+00  0.194E+00
 14.380  0.202E+00  0.185E+00
 14.390  0.194E+00  0.177E+00
 14.400  0.187E+00  0.171E+00
 14.410  0.183E+00  0.167E+00
 14.420  0.180E+00  0.164E+00
 14.430  0.179E+00  0.164E+00
 14.440  0.181E+00  0.165E+00
 14.450  0.184E+00  0.168E+00
 14.460  0.190E+00  0.174E+00
 14.470  0.199E+00  0.181E+00
 14.480  0.209E+00  0.191E+00
 14.490  0.223E+00  0.203E+00
 14.500  0.238E+00  0.217E+00
 14.510  0.256E+00  0.234E+00
 14.520  0.276E+00  0.252E+00
 14.530  0.299E+00  0.273E+00
 14.540  0.324E+00  0.296E+00
 14.550  0.352E+00  0.321E+00
 14.560  0.382E+00  0.348E+00
 14.570  0.414E+00  0.378E+00
 14.580  0.449E+00  0.410E+00
 14.590  0.486E+00  0.443E+00
 14.600  0.526E+00  0.479E+00
 14.610  0.568E+00  0.518E+00
 14.620  0.613E+00  0.558E+00
 14.630  0.659E+00  0.600E+00
 14.640  0.708E+00  0.645E+00
 14.650  0.759E+00  0.691E+00
 14.660  0.811E+00  0.739E+00
 14.670  0.866E+00  0.788E+00
 14.680  0.922E+00  0.839E+00
 14.690  0.979E+00  0.891E+00
 14.700  0.104E+01  0.944E+00
 14.710  0.110E+01  0.998E+00
 14.720  0.116E+01  0.105E+01
 14.730  0.122E+01  0.111E+01
 14.740  0.128E+01  0.117E+01
 14.750  0.134E+01  0.122E+01
 14.760  0.140E+01  0.128E+01
 14.770  0.146E+01  0.134E+01
 14.780  0.153E+01  0.140E+01
 14.790  0.159E+01  0.146E+01
 14.800  0.166E+01  0.152E+01
 14.810  0.172E+01  0.158E+01
 14.820  0.179E+01  0.164E+01
 14.830  0.185E+01  0.170E+01
 14.840  0.192E+01  0.177E+01
 14.850  0.199E+01  0.183E+01
 14.860  0.205E+01  0.190E+01
 14.870  0.212E+01  0.196E+01
 14.880  0.218E+01  0.202E+01
 14.890  0.225E+01  0.208E+01
 14.900  0.231E+01  0.214E+01
 14.910  0.236E+01  0.219E+01
 14.920  0.241E+01  0.224E+01
 14.930  0.246E+01  0.229E+01
 14.940  0.250E+01  0.232E+01
 14.950  0.253E+01  0.236E+01
 14.960  0.256E+01  0.238E+01
 14.970  0.258E+01  0.240E+01
 14.980  0.259E+01  0.241E+01
 14.990  0.259E+01  0.241E+01
 15.000  0.258E+01  0.240E+01
 15.010  0.256E+01  0.238E+01
 15.020  0.253E+01  0.236E+01
 15.030  0.249E+01  0.233E+01
 15.040  0.245E+01  0.228E+01
 15.050  0.240E+01  0.224E+01
 15.060  0.234E+01  0.218E+01
 15.070  0.228E+01  0.213E+01
 15.080  0.221E+01  0.206E+01
 15.090  0.215E+01  0.200E+01
 15.100  0.208E+01  0.193E+01
 15.110  0.200E+01  0.187E+01
 15.120  0.193E+01  0.180E+01
 15.130  0.186E+01  0.174E+01
 15.140  0.180E+01  0.167E+01
 15.150  0.173E+01  0.161E+01
 15.160  0.167E+01  0.156E+01
 15.170  0.162E+01  0.150E+01
 15.180  0.157E+01  0.145E+01
 15.190  0.152E+01  0.141E+01
 15.200  0.148E+01  0.137E+01
 15.210  0.144E+01  0.133E+01
 15.220  0.141E+01  0.130E+01
 15.230  0.138E+01  0.127E+01
 15.240  0.135E+01  0.125E+01
 15.250  0.133E+01  0.122E+01
 15.260  0.131E+01  0.120E+01
 15.270  0.129E+01  0.119E+01
 15.280  0.127E+01  0.117E+01
 15.290  0.126E+01  0.115E+01
 15.300  0.124E+01  0.114E+01
 15.310  0.123E+01  0.113E+01
 15.320  0.121E+01  0.111E+01
 15.330  0.120E+01  0.110E+01
 15.340  0.119E+01  0.108E+01
 15.350  0.117E+01  0.107E+01
 15.360  0.115E+01  0.106E+01
 15.370  0.114E+01  0.104E+01
 15.380  0.112E+01  0.102E+01
 15.390  0.110E+01  0.101E+01
 15.400  0.108E+01  0.989E+00
 15.410  0.106E+01  0.971E+00
 15.420  0.104E+01  0.953E+00
 15.430  0.102E+01  0.934E+00
 15.440  0.999E+00  0.915E+00
 15.450  0.978E+00  0.896E+00
 15.460  0.958E+00  0.877E+00
 15.470  0.937E+00  0.859E+00
 15.480  0.917E+00  0.841E+00
 15.490  0.897E+00  0.823E+00
 15.500  0.878E+00  0.806E+00
 15.510  0.859E+00  0.789E+00
 15.520  0.841E+00  0.773E+00
 15.530  0.824E+00  0.757E+00
 15.540  0.807E+00  0.742E+00
 15.550  0.791E+00  0.728E+00
 15.560  0.775E+00  0.714E+00
 15.570  0.760E+00  0.700E+00
 15.580  0.746E+00  0.687E+00
 15.590  0.732E+00  0.675E+00
 15.600  0.718E+00  0.662E+00
 15.610  0.705E+00  0.650E+00
 15.620  0.692E+00  0.638E+00
 15.630  0.679E+00  0.627E+00
 15.640  0.666E+00  0.615E+00
 15.650  0.654E+00  0.604E+00
 15.660  0.642E+00  0.593E+00
 15.670  0.630E+00  0.583E+00
 15.680  0.619E+00  0.572E+00
 15.690  0.608E+00  0.563E+00
 15.700  0.598E+00  0.553E+00
 15.710  0.588E+00  0.544E+00
 15.720  0.578E+00  0.535E+00
 15.730  0.569E+00  0.527E+00
 15.740  0.560E+00  0.519E+00
 15.750  0.552E+00  0.512E+00
 15.760  0.544E+00  0.504E+00
 15.770  0.536E+00  0.498E+00
 15.780  0.528E+00  0.491E+00
 15.790  0.521E+00  0.484E+00
 15.800  0.514E+00  0.478E+00
 15.810  0.507E+00  0.471E+00
 15.820  0.499E+00  0.464E+00
 15.830  0.492E+00  0.458E+00
 15.840  0.484E+00  0.451E+00
 15.850  0.477E+00  0.444E+00
 15.860  0.469E+00  0.437E+00
 15.870  0.461E+00  0.430E+00
 15.880  0.453E+00  0.423E+00
 15.890  0.445E+00  0.415E+00
 15.900  0.438E+00  0.408E+00
 15.910  0.430E+00  0.402E+00
 15.920  0.423E+00  0.395E+00
 15.930  0.417E+00  0.389E+00
 15.940  0.410E+00  0.383E+00
 15.950  0.405E+00  0.378E+00
 15.960  0.399E+00  0.373E+00
 15.970  0.394E+00  0.369E+00
 15.980  0.390E+00  0.365E+00
 15.990  0.386E+00  0.361E+00
 16.000  0.382E+00  0.358E+00
 16.010  0.379E+00  0.355E+00
 16.020  0.376E+00  0.352E+00
 16.030  0.372E+00  0.349E+00
 16.040  0.369E+00  0.346E+00
 16.050  0.365E+00  0.342E+00
 16.060  0.361E+00  0.338E+00
 16.070  0.357E+00  0.334E+00
 16.080  0.352E+00  0.330E+00
 16.090  0.346E+00  0.325E+00
 16.100  0.340E+00  0.319E+00
 16.110  0.334E+00  0.313E+00
 16.120  0.327E+00  0.307E+00
 16.130  0.320E+00  0.301E+00
 16.140  0.314E+00  0.294E+00
 16.150  0.307E+00  0.288E+00
 16.160  0.300E+00  0.281E+00
 16.170  0.293E+00  0.275E+00
 16.180  0.287E+00  0.269E+00
 16.190  0.281E+00  0.264E+00
 16.200  0.276E+00  0.259E+00
 16.210  0.272E+00  0.255E+00
 16.220  0.268E+00  0.251E+00
 16.230  0.264E+00  0.248E+00
 16.240  0.261E+00  0.245E+00
 16.250  0.259E+00  0.243E+00
 16.260  0.257E+00  0.241E+00
 16.270  0.255E+00  0.239E+00
 16.280  0.253E+00  0.238E+00
 16.290  0.252E+00  0.236E+00
 16.300  0.250E+00  0.235E+00
 16.310  0.249E+00  0.233E+00
 16.320  0.247E+00  0.232E+00
 16.330  0.245E+00  0.230E+00
 16.340  0.244E+00  0.228E+00
 16.350  0.243E+00  0.227E+00
 16.360  0.242E+00  0.226E+00
 16.370  0.241E+00  0.225E+00
 16.380  0.242E+00  0.224E+00
 16.390  0.243E+00  0.225E+00
 16.400  0.245E+00  0.226E+00
 16.410  0.248E+00  0.228E+00
 16.420  0.253E+00  0.232E+00
 16.430  0.260E+00  0.237E+00
 16.440  0.268E+00  0.243E+00
 16.450  0.279E+00  0.251E+00
 16.460  0.291E+00  0.261E+00
 16.470  0.306E+00  0.273E+00
 16.480  0.323E+00  0.286E+00
 16.490  0.341E+00  0.301E+00
 16.500  0.362E+00  0.318E+00
 16.510  0.384E+00  0.336E+00
 16.520  0.409E+00  0.356E+00
 16.530  0.435E+00  0.377E+00
 16.540  0.462E+00  0.399E+00
 16.550  0.490E+00  0.422E+00
 16.560  0.519E+00  0.445E+00
 16.570  0.549E+00  0.470E+00
 16.580  0.579E+00  0.494E+00
 16.590  0.609E+00  0.519E+00
 16.600  0.640E+00  0.544E+00
 16.610  0.670E+00  0.568E+00
 16.620  0.700E+00  0.592E+00
 16.630  0.730E+00  0.616E+00
 16.640  0.759E+00  0.640E+00
 16.650  0.788E+00  0.663E+00
 16.660  0.817E+00  0.687E+00
 16.670  0.846E+00  0.710E+00
 16.680  0.875E+00  0.733E+00
 16.690  0.903E+00  0.756E+00
 16.700  0.932E+00  0.779E+00
 16.710  0.961E+00  0.802E+00
 16.720  0.991E+00  0.826E+00
 16.730  0.102E+01  0.849E+00
 16.740  0.105E+01  0.873E+00
 16.750  0.108E+01  0.897E+00
 16.760  0.111E+01  0.921E+00
 16.770  0.114E+01  0.944E+00
 16.780  0.117E+01  0.967E+00
 16.790  0.119E+01  0.990E+00
 16.800  0.122E+01  0.101E+01
 16.810  0.125E+01  0.103E+01
 16.820  0.127E+01  0.105E+01
 16.830  0.130E+01  0.107E+01
 16.840  0.132E+01  0.109E+01
 16.850  0.134E+01  0.110E+01
 16.860  0.135E+01  0.112E+01
 16.870  0.137E+01  0.113E+01
 16.880  0.139E+01  0.114E+01
 16.890  0.140E+01  0.115E+01
 16.900  0.141E+01  0.116E+01
 16.910  0.142E+01  0.117E+01
 16.920  0.144E+01  0.118E+01
 16.930  0.145E+01  0.119E+01
 16.940  0.146E+01  0.119E+01
 16.950  0.147E+01  0.120E+01
 16.960  0.148E+01  0.121E+01
 16.970  0.149E+01  0.121E+01
 16.980  0.150E+01  0.122E+01
 16.990  0.150E+01  0.122E+01
 17.000  0.151E+01  0.123E+01
 17.010  0.152E+01  0.123E+01
 17.020  0.153E+01  0.123E+01
 17.030  0.153E+01  0.123E+01
 17.040  0.153E+01  0.123E+01
 17.050  0.154E+01  0.123E+01
 17.060  0.154E+01  0.123E+01
 17.070  0.154E+01  0.123E+01
 17.080  0.154E+01  0.123E+01
 17.090  0.154E+01  0.123E+01
 17.100  0.154E+01  0.122E+01
 17.110  0.154E+01  0.122E+01
 17.120  0.153E+01  0.122E+01
 17.130  0.153E+01  0.121E+01
 17.140  0.153E+01  0.121E+01
 17.150  0.153E+01  0.120E+01
 17.160  0.153E+01  0.120E+01
 17.170  0.153E+01  0.120E+01
 17.180  0.153E+01  0.119E+01
 17.190  0.153E+01  0.119E+01
 17.200  0.153E+01  0.119E+01
 17.210  0.153E+01  0.119E+01
 17.220  0.153E+01  0.118E+01
 17.230  0.153E+01  0.118E+01
 17.240  0.153E+01  0.118E+01
 17.250  0.153E+01  0.117E+01
 17.260  0.153E+01  0.117E+01
 17.270  0.153E+01  0.116E+01
 17.280  0.152E+01  0.116E+01
 17.290  0.151E+01  0.115E+01
 17.300  0.150E+01  0.114E+01
 17.310  0.149E+01  0.112E+01
 17.320  0.148E+01  0.111E+01
 17.330  0.146E+01  0.109E+01
 17.340  0.145E+01  0.108E+01
 17.350  0.143E+01  0.106E+01
 17.360  0.140E+01  0.104E+01
 17.370  0.138E+01  0.102E+01
 17.380  0.136E+01  0.100E+01
 17.390  0.134E+01  0.981E+00
 17.400  0.132E+01  0.963E+00
 17.410  0.130E+01  0.946E+00
 17.420  0.128E+01  0.930E+00
 17.430  0.126E+01  0.915E+00
 17.440  0.125E+01  0.902E+00
 17.450  0.123E+01  0.891E+00
 17.460  0.122E+01  0.881E+00
 17.470  0.121E+01  0.873E+00
 17.480  0.121E+01  0.866E+00
 17.490  0.120E+01  0.860E+00
 17.500  0.119E+01  0.855E+00
 17.510  0.119E+01  0.850E+00
 17.520  0.119E+01  0.845E+00
 17.530  0.118E+01  0.840E+00
 17.540  0.118E+01  0.834E+00
 17.550  0.117E+01  0.828E+00
 17.560  0.117E+01  0.821E+00
 17.570  0.116E+01  0.813E+00
 17.580  0.115E+01  0.803E+00
 17.590  0.114E+01  0.793E+00
 17.600  0.113E+01  0.782E+00
 17.610  0.112E+01  0.771E+00
 17.620  0.111E+01  0.758E+00
 17.630  0.110E+01  0.746E+00
 17.640  0.109E+01  0.733E+00
 17.650  0.107E+01  0.721E+00
 17.660  0.106E+01  0.710E+00
 17.670  0.105E+01  0.699E+00
 17.680  0.104E+01  0.690E+00
 17.690  0.104E+01  0.681E+00
 17.700  0.103E+01  0.674E+00
 17.710  0.103E+01  0.669E+00
 17.720  0.103E+01  0.664E+00
 17.730  0.103E+01  0.661E+00
 17.740  0.103E+01  0.660E+00
 17.750  0.104E+01  0.659E+00
 17.760  0.104E+01  0.660E+00
 17.770  0.105E+01  0.661E+00
 17.780  0.106E+01  0.662E+00
 17.790  0.107E+01  0.664E+00
 17.800  0.107E+01  0.666E+00
 17.810  0.108E+01  0.667E+00
 17.820  0.109E+01  0.668E+00
 17.830  0.110E+01  0.668E+00
 17.840  0.110E+01  0.667E+00
 17.850  0.111E+01  0.666E+00
 17.860  0.111E+01  0.663E+00
 17.870  0.111E+01  0.660E+00
 17.880  0.111E+01  0.655E+00
 17.890  0.111E+01  0.650E+00
 17.900  0.111E+01  0.643E+00
 17.910  0.110E+01  0.636E+00
 17.920  0.110E+01  0.628E+00
 17.930  0.109E+01  0.619E+00
 17.940  0.107E+01  0.611E+00
 17.950  0.106E+01  0.601E+00
 17.960  0.105E+01  0.592E+00
 17.970  0.103E+01  0.583E+00
 17.980  0.101E+01  0.575E+00
 17.990  0.997E+00  0.566E+00
 18.000  0.978E+00  0.558E+00
 18.010  0.959E+00  0.551E+00
 18.020  0.940E+00  0.545E+00
 18.030  0.920E+00  0.539E+00
 18.040  0.901E+00  0.534E+00
 18.050  0.882E+00  0.531E+00
 18.060  0.864E+00  0.528E+00
 18.070  0.848E+00  0.527E+00
 18.080  0.832E+00  0.527E+00
 18.090  0.819E+00  0.528E+00
 18.100  0.807E+00  0.531E+00
 18.110  0.797E+00  0.535E+00
 18.120  0.790E+00  0.540E+00
 18.130  0.786E+00  0.548E+00
 18.140  0.784E+00  0.557E+00
 18.150  0.786E+00  0.567E+00
 18.160  0.790E+00  0.580E+00
 18.170  0.797E+00  0.594E+00
 18.180  0.808E+00  0.611E+00
 18.190  0.821E+00  0.629E+00
 18.200  0.838E+00  0.649E+00
 18.210  0.857E+00  0.670E+00
 18.220  0.878E+00  0.693E+00
 18.230  0.903E+00  0.718E+00
 18.240  0.929E+00  0.744E+00
 18.250  0.956E+00  0.771E+00
 18.260  0.986E+00  0.799E+00
 18.270  0.102E+01  0.827E+00
 18.280  0.105E+01  0.856E+00
 18.290  0.108E+01  0.885E+00
 18.300  0.111E+01  0.914E+00
 18.310  0.114E+01  0.942E+00
 18.320  0.117E+01  0.970E+00
 18.330  0.120E+01  0.997E+00
 18.340  0.123E+01  0.102E+01
 18.350  0.126E+01  0.105E+01
 18.360  0.128E+01  0.107E+01
 18.370  0.131E+01  0.109E+01
 18.380  0.133E+01  0.112E+01
 18.390  0.136E+01  0.114E+01
 18.400  0.138E+01  0.116E+01
 18.410  0.140E+01  0.118E+01
 18.420  0.142E+01  0.120E+01
 18.430  0.144E+01  0.122E+01
 18.440  0.146E+01  0.124E+01
 18.450  0.148E+01  0.126E+01
 18.460  0.151E+01  0.127E+01
 18.470  0.153E+01  0.129E+01
 18.480  0.155E+01  0.131E+01
 18.490  0.157E+01  0.133E+01
 18.500  0.159E+01  0.135E+01
 18.510  0.161E+01  0.137E+01
 18.520  0.164E+01  0.139E+01
 18.530  0.166E+01  0.141E+01
 18.540  0.168E+01  0.143E+01
 18.550  0.171E+01  0.145E+01
 18.560  0.173E+01  0.148E+01
 18.570  0.176E+01  0.150E+01
 18.580  0.178E+01  0.152E+01
 18.590  0.181E+01  0.155E+01
 18.600  0.184E+01  0.157E+01
 18.610  0.187E+01  0.159E+01
 18.620  0.190E+01  0.162E+01
 18.630  0.193E+01  0.165E+01
 18.640  0.196E+01  0.167E+01
 18.650  0.199E+01  0.170E+01
 18.660  0.203E+01  0.173E+01
 18.670  0.206E+01  0.176E+01
 18.680  0.210E+01  0.179E+01
 18.690  0.213E+01  0.182E+01
 18.700  0.217E+01  0.185E+01
 18.710  0.221E+01  0.188E+01
 18.720  0.225E+01  0.191E+01
 18.730  0.229E+01  0.195E+01
 18.740  0.233E+01  0.198E+01
 18.750  0.237E+01  0.202E+01
 18.760  0.241E+01  0.205E+01
 18.770  0.245E+01  0.208E+01
 18.780  0.249E+01  0.212E+01
 18.790  0.252E+01  0.215E+01
 18.800  0.256E+01  0.218E+01
 18.810  0.260E+01  0.221E+01
 18.820  0.263E+01  0.224E+01
 18.830  0.266E+01  0.226E+01
 18.840  0.268E+01  0.228E+01
 18.850  0.270E+01  0.230E+01
 18.860  0.271E+01  0.231E+01
 18.870  0.272E+01  0.232E+01
 18.880  0.272E+01  0.233E+01
 18.890  0.272E+01  0.232E+01
 18.900  0.271E+01  0.231E+01
 18.910  0.269E+01  0.230E+01
 18.920  0.266E+01  0.228E+01
 18.930  0.263E+01  0.225E+01
 18.940  0.259E+01  0.222E+01
 18.950  0.254E+01  0.218E+01
 18.960  0.249E+01  0.213E+01
 18.970  0.243E+01  0.209E+01
 18.980  0.237E+01  0.203E+01
 18.990  0.230E+01  0.198E+01
 19.000  0.223E+01  0.192E+01
 19.010  0.216E+01  0.186E+01
 19.020  0.208E+01  0.179E+01
 19.030  0.201E+01  0.173E+01
 19.040  0.193E+01  0.166E+01
 19.050  0.186E+01  0.160E+01
 19.060  0.179E+01  0.154E+01
 19.070  0.171E+01  0.148E+01
 19.080  0.164E+01  0.142E+01
 19.090  0.158E+01  0.136E+01
 19.100  0.152E+01  0.131E+01
 19.110  0.146E+01  0.126E+01
 19.120  0.140E+01  0.121E+01
 19.130  0.135E+01  0.116E+01
 19.140  0.130E+01  0.112E+01
 19.150  0.125E+01  0.108E+01
 19.160  0.121E+01  0.104E+01
 19.170  0.117E+01  0.101E+01
 19.180  0.113E+01  0.976E+00
 19.190  0.109E+01  0.945E+00
 19.200  0.106E+01  0.916E+00
 19.210  0.103E+01  0.888E+00
 19.220  0.997E+00  0.862E+00
 19.230  0.968E+00  0.837E+00
 19.240  0.941E+00  0.813E+00
 19.250  0.914E+00  0.790E+00
 19.260  0.888E+00  0.768E+00
 19.270  0.863E+00  0.747E+00
 19.280  0.839E+00  0.726E+00
 19.290  0.815E+00  0.706E+00
 19.300  0.792E+00  0.686E+00
 19.310  0.769E+00  0.667E+00
 19.320  0.746E+00  0.648E+00
 19.330  0.724E+00  0.630E+00
 19.340  0.702E+00  0.611E+00
 19.350  0.681E+00  0.594E+00
 19.360  0.660E+00  0.576E+00
 19.370  0.639E+00  0.558E+00
 19.380  0.619E+00  0.541E+00
 19.390  0.598E+00  0.524E+00
 19.400  0.579E+00  0.508E+00
 19.410  0.559E+00  0.491E+00
 19.420  0.540E+00  0.475E+00
 19.430  0.521E+00  0.459E+00
 19.440  0.503E+00  0.444E+00
 19.450  0.485E+00  0.429E+00
 19.460  0.469E+00  0.415E+00
 19.470  0.453E+00  0.401E+00
 19.480  0.437E+00  0.389E+00
 19.490  0.423E+00  0.377E+00
 19.500  0.409E+00  0.365E+00
 19.510  0.397E+00  0.355E+00
 19.520  0.385E+00  0.345E+00
 19.530  0.374E+00  0.336E+00
 19.540  0.364E+00  0.328E+00
 19.550  0.355E+00  0.320E+00
 19.560  0.346E+00  0.313E+00
 19.570  0.338E+00  0.306E+00
 19.580  0.330E+00  0.299E+00
 19.590  0.322E+00  0.293E+00
 19.600  0.315E+00  0.287E+00
 19.610  0.307E+00  0.280E+00
 19.620  0.300E+00  0.274E+00
 19.630  0.292E+00  0.267E+00
 19.640  0.284E+00  0.261E+00
 19.650  0.277E+00  0.254E+00
 19.660  0.269E+00  0.247E+00
 19.670  0.261E+00  0.240E+00
 19.680  0.253E+00  0.233E+00
 19.690  0.245E+00  0.226E+00
 19.700  0.238E+00  0.219E+00
 19.710  0.230E+00  0.213E+00
 19.720  0.223E+00  0.206E+00
 19.730  0.216E+00  0.200E+00
 19.740  0.210E+00  0.194E+00
 19.750  0.203E+00  0.188E+00
 19.760  0.198E+00  0.183E+00
 19.770  0.192E+00  0.177E+00
 19.780  0.187E+00  0.173E+00
 19.790  0.183E+00  0.168E+00
 19.800  0.178E+00  0.164E+00
 19.810  0.174E+00  0.159E+00
 19.820  0.170E+00  0.155E+00
 19.830  0.166E+00  0.152E+00
 19.840  0.162E+00  0.148E+00
 19.850  0.159E+00  0.144E+00
 19.860  0.155E+00  0.140E+00
 19.870  0.152E+00  0.137E+00
 19.880  0.148E+00  0.133E+00
 19.890  0.145E+00  0.130E+00
 19.900  0.141E+00  0.126E+00
 19.910  0.137E+00  0.122E+00
 19.920  0.134E+00  0.119E+00
 19.930  0.130E+00  0.115E+00
 19.940  0.126E+00  0.112E+00
 19.950  0.122E+00  0.108E+00
 19.960  0.118E+00  0.104E+00
 19.970  0.114E+00  0.101E+00
 19.980  0.110E+00  0.970E-01
 19.990  0.105E+00  0.933E-01
 20.000  0.101E+00  0.895E-01
 20.010  0.965E-01  0.856E-01
 20.020  0.919E-01  0.817E-01
 20.030  0.873E-01  0.777E-01
 20.040  0.825E-01  0.737E-01
 20.050  0.778E-01  0.696E-01
 20.060  0.730E-01  0.655E-01
 20.070  0.683E-01  0.614E-01
 20.080  0.635E-01  0.573E-01
 20.090  0.588E-01  0.533E-01
 20.100  0.542E-01  0.492E-01
 20.110  0.497E-01  0.453E-01
 20.120  0.454E-01  0.414E-01
 20.130  0.411E-01  0.377E-01
 20.140  0.371E-01  0.340E-01
 20.150  0.332E-01  0.306E-01
 20.160  0.296E-01  0.273E-01
 20.170  0.262E-01  0.242E-01
 20.180  0.230E-01  0.213E-01
 20.190  0.201E-01  0.186E-01
 20.200  0.174E-01  0.162E-01
 20.210  0.149E-01  0.139E-01
 20.220  0.127E-01  0.119E-01
 20.230  0.108E-01  0.101E-01
 20.240  0.906E-02  0.849E-02
 20.250  0.754E-02  0.708E-02
 20.260  0.623E-02  0.585E-02
 20.270  0.510E-02  0.480E-02
 20.280  0.414E-02  0.390E-02
 20.290  0.333E-02  0.314E-02
 20.300  0.266E-02  0.251E-02
 20.310  0.210E-02  0.199E-02
 20.320  0.165E-02  0.156E-02
 20.330  0.128E-02  0.121E-02
 20.340  0.984E-03  0.932E-03
 20.350  0.750E-03  0.711E-03
 20.360  0.566E-03  0.537E-03
 20.370  0.424E-03  0.402E-03
 20.380  0.314E-03  0.298E-03
 20.390  0.230E-03  0.219E-03
 20.400  0.167E-03  0.159E-03
 20.410  0.121E-03  0.115E-03
 20.420  0.860E-04  0.820E-04
 20.430  0.608E-04  0.579E-04
 20.440  0.425E-04  0.406E-04
 20.450  0.295E-04  0.281E-04
 20.460  0.202E-04  0.193E-04
 20.470  0.138E-04  0.131E-04
 20.480  0.926E-05  0.885E-05
 20.490  0.617E-05  0.590E-05
 20.500  0.408E-05  0.390E-05
 20.510  0.266E-05  0.255E-05
 20.520  0.173E-05  0.165E-05
 20.530  0.111E-05  0.106E-05
 20.540  0.702E-06  0.673E-06
 20.550  0.441E-06  0.423E-06
