# E (eV)   ldos(E)   pdos(E)    pdos(E)    pdos(E)   
 -6.080  0.262E-07  0.874E-08  0.874E-08  0.874E-08
 -6.070  0.429E-07  0.143E-07  0.143E-07  0.143E-07
 -6.060  0.696E-07  0.232E-07  0.232E-07  0.232E-07
 -6.050  0.112E-06  0.372E-07  0.372E-07  0.372E-07
 -6.040  0.177E-06  0.591E-07  0.591E-07  0.591E-07
 -6.030  0.279E-06  0.929E-07  0.929E-07  0.929E-07
 -6.020  0.434E-06  0.145E-06  0.145E-06  0.145E-06
 -6.010  0.668E-06  0.223E-06  0.223E-06  0.223E-06
 -6.000  0.102E-05  0.339E-06  0.339E-06  0.339E-06
 -5.990  0.153E-05  0.512E-06  0.512E-06  0.512E-06
 -5.980  0.229E-05  0.764E-06  0.764E-06  0.764E-06
 -5.970  0.339E-05  0.113E-05  0.113E-05  0.113E-05
 -5.960  0.495E-05  0.165E-05  0.165E-05  0.165E-05
 -5.950  0.717E-05  0.239E-05  0.239E-05  0.239E-05
 -5.940  0.103E-04  0.342E-05  0.342E-05  0.342E-05
 -5.930  0.146E-04  0.485E-05  0.485E-05  0.485E-05
 -5.920  0.204E-04  0.681E-05  0.681E-05  0.681E-05
 -5.910  0.284E-04  0.947E-05  0.947E-05  0.947E-05
 -5.900  0.391E-04  0.130E-04  0.130E-04  0.130E-04
 -5.890  0.532E-04  0.177E-04  0.177E-04  0.177E-04
 -5.880  0.717E-04  0.239E-04  0.239E-04  0.239E-04
 -5.870  0.956E-04  0.319E-04  0.319E-04  0.319E-04
 -5.860  0.126E-03  0.421E-04  0.421E-04  0.421E-04
 -5.850  0.165E-03  0.550E-04  0.550E-04  0.550E-04
 -5.840  0.214E-03  0.712E-04  0.712E-04  0.712E-04
 -5.830  0.274E-03  0.912E-04  0.912E-04  0.912E-04
 -5.820  0.347E-03  0.116E-03  0.116E-03  0.116E-03
 -5.810  0.436E-03  0.145E-03  0.145E-03  0.145E-03
 -5.800  0.542E-03  0.181E-03  0.181E-03  0.181E-03
 -5.790  0.667E-03  0.222E-03  0.222E-03  0.222E-03
 -5.780  0.813E-03  0.271E-03  0.271E-03  0.271E-03
 -5.770  0.982E-03  0.327E-03  0.327E-03  0.327E-03
 -5.760  0.117E-02  0.391E-03  0.391E-03  0.391E-03
 -5.750  0.139E-02  0.463E-03  0.463E-03  0.463E-03
 -5.740  0.163E-02  0.543E-03  0.543E-03  0.543E-03
 -5.730  0.189E-02  0.630E-03  0.630E-03  0.630E-03
 -5.720  0.217E-02  0.724E-03  0.724E-03  0.724E-03
 -5.710  0.247E-02  0.824E-03  0.824E-03  0.824E-03
 -5.700  0.279E-02  0.930E-03  0.930E-03  0.930E-03
 -5.690  0.312E-02  0.104E-02  0.104E-02  0.104E-02
 -5.680  0.345E-02  0.115E-02  0.115E-02  0.115E-02
 -5.670  0.378E-02  0.126E-02  0.126E-02  0.126E-02
 -5.660  0.411E-02  0.137E-02  0.137E-02  0.137E-02
 -5.650  0.443E-02  0.148E-02  0.148E-02  0.148E-02
 -5.640  0.472E-02  0.157E-02  0.157E-02  0.157E-02
 -5.630  0.500E-02  0.167E-02  0.167E-02  0.167E-02
 -5.620  0.524E-02  0.175E-02  0.175E-02  0.175E-02
 -5.610  0.544E-02  0.181E-02  0.181E-02  0.181E-02
 -5.600  0.561E-02  0.187E-02  0.187E-02  0.187E-02
 -5.590  0.573E-02  0.191E-02  0.191E-02  0.191E-02
 -5.580  0.581E-02  0.194E-02  0.194E-02  0.194E-02
 -5.570  0.584E-02  0.195E-02  0.195E-02  0.195E-02
 -5.560  0.582E-02  0.194E-02  0.194E-02  0.194E-02
 -5.550  0.576E-02  0.192E-02  0.192E-02  0.192E-02
 -5.540  0.565E-02  0.188E-02  0.188E-02  0.188E-02
 -5.530  0.551E-02  0.184E-02  0.184E-02  0.184E-02
 -5.520  0.533E-02  0.178E-02  0.178E-02  0.178E-02
 -5.510  0.512E-02  0.171E-02  0.171E-02  0.171E-02
 -5.500  0.488E-02  0.163E-02  0.163E-02  0.163E-02
 -5.490  0.462E-02  0.154E-02  0.154E-02  0.154E-02
 -5.480  0.434E-02  0.145E-02  0.145E-02  0.145E-02
 -5.470  0.406E-02  0.135E-02  0.135E-02  0.135E-02
 -5.460  0.377E-02  0.126E-02  0.126E-02  0.126E-02
 -5.450  0.348E-02  0.116E-02  0.116E-02  0.116E-02
 -5.440  0.319E-02  0.106E-02  0.106E-02  0.106E-02
 -5.430  0.291E-02  0.970E-03  0.970E-03  0.970E-03
 -5.420  0.264E-02  0.879E-03  0.879E-03  0.879E-03
 -5.410  0.238E-02  0.792E-03  0.792E-03  0.792E-03
 -5.400  0.213E-02  0.710E-03  0.710E-03  0.710E-03
 -5.390  0.190E-02  0.633E-03  0.633E-03  0.633E-03
 -5.380  0.168E-02  0.561E-03  0.561E-03  0.561E-03
 -5.370  0.148E-02  0.494E-03  0.494E-03  0.494E-03
 -5.360  0.130E-02  0.433E-03  0.433E-03  0.433E-03
 -5.350  0.113E-02  0.377E-03  0.377E-03  0.377E-03
 -5.340  0.981E-03  0.327E-03  0.327E-03  0.327E-03
 -5.330  0.845E-03  0.282E-03  0.282E-03  0.282E-03
 -5.320  0.724E-03  0.241E-03  0.241E-03  0.241E-03
 -5.310  0.616E-03  0.205E-03  0.205E-03  0.205E-03
 -5.300  0.522E-03  0.174E-03  0.174E-03  0.174E-03
 -5.290  0.439E-03  0.146E-03  0.146E-03  0.146E-03
 -5.280  0.367E-03  0.122E-03  0.122E-03  0.122E-03
 -5.270  0.305E-03  0.102E-03  0.102E-03  0.102E-03
 -5.260  0.252E-03  0.840E-04  0.840E-04  0.840E-04
 -5.250  0.207E-03  0.689E-04  0.689E-04  0.689E-04
 -5.240  0.168E-03  0.562E-04  0.562E-04  0.562E-04
 -5.230  0.136E-03  0.454E-04  0.454E-04  0.454E-04
 -5.220  0.110E-03  0.365E-04  0.365E-04  0.365E-04
 -5.210  0.874E-04  0.291E-04  0.291E-04  0.291E-04
 -5.200  0.693E-04  0.231E-04  0.231E-04  0.231E-04
 -5.190  0.545E-04  0.182E-04  0.182E-04  0.182E-04
 -5.180  0.425E-04  0.142E-04  0.142E-04  0.142E-04
 -5.170  0.329E-04  0.110E-04  0.110E-04  0.110E-04
 -5.160  0.253E-04  0.844E-05  0.844E-05  0.844E-05
 -5.150  0.193E-04  0.643E-05  0.643E-05  0.643E-05
 -5.140  0.146E-04  0.487E-05  0.487E-05  0.487E-05
 -5.130  0.110E-04  0.365E-05  0.365E-05  0.365E-05
 -5.120  0.815E-05  0.272E-05  0.272E-05  0.272E-05
 -5.110  0.602E-05  0.201E-05  0.201E-05  0.201E-05
 -5.100  0.440E-05  0.147E-05  0.147E-05  0.147E-05
 -5.090  0.320E-05  0.107E-05  0.107E-05  0.107E-05
 -5.080  0.230E-05  0.767E-06  0.767E-06  0.767E-06
 -5.070  0.164E-05  0.547E-06  0.547E-06  0.547E-06
 -5.060  0.116E-05  0.387E-06  0.387E-06  0.387E-06
 -5.050  0.813E-06  0.271E-06  0.271E-06  0.271E-06
 -5.040  0.565E-06  0.188E-06  0.188E-06  0.188E-06
 -5.030  0.389E-06  0.130E-06  0.130E-06  0.130E-06
 -5.020  0.266E-06  0.885E-07  0.885E-07  0.885E-07
 -5.010  0.180E-06  0.599E-07  0.599E-07  0.599E-07
 -5.000  0.120E-06  0.401E-07  0.401E-07  0.401E-07
 -4.990  0.799E-07  0.266E-07  0.266E-07  0.266E-07
 -4.980  0.526E-07  0.175E-07  0.175E-07  0.175E-07
 -4.970  0.343E-07  0.114E-07  0.114E-07  0.114E-07
 -4.960  0.222E-07  0.739E-08  0.739E-08  0.739E-08
 -4.950  0.143E-07  0.475E-08  0.475E-08  0.475E-08
 -4.940  0.918E-08  0.306E-08  0.306E-08  0.306E-08
 -4.930  0.603E-08  0.201E-08  0.201E-08  0.201E-08
 -4.920  0.425E-08  0.142E-08  0.142E-08  0.142E-08
 -4.910  0.354E-08  0.118E-08  0.118E-08  0.118E-08
 -4.900  0.383E-08  0.128E-08  0.128E-08  0.128E-08
 -4.890  0.532E-08  0.177E-08  0.177E-08  0.177E-08
 -4.880  0.854E-08  0.285E-08  0.285E-08  0.285E-08
 -4.870  0.145E-07  0.483E-08  0.483E-08  0.483E-08
 -4.860  0.249E-07  0.831E-08  0.831E-08  0.831E-08
 -4.850  0.428E-07  0.143E-07  0.143E-07  0.143E-07
 -4.840  0.731E-07  0.244E-07  0.244E-07  0.244E-07
 -4.830  0.124E-06  0.412E-07  0.412E-07  0.412E-07
 -4.820  0.207E-06  0.691E-07  0.691E-07  0.691E-07
 -4.810  0.344E-06  0.115E-06  0.115E-06  0.115E-06
 -4.800  0.566E-06  0.189E-06  0.189E-06  0.189E-06
 -4.790  0.921E-06  0.307E-06  0.307E-06  0.307E-06
 -4.780  0.148E-05  0.495E-06  0.495E-06  0.495E-06
 -4.770  0.237E-05  0.790E-06  0.790E-06  0.790E-06
 -4.760  0.375E-05  0.125E-05  0.125E-05  0.125E-05
 -4.750  0.587E-05  0.196E-05  0.196E-05  0.196E-05
 -4.740  0.911E-05  0.304E-05  0.304E-05  0.304E-05
 -4.730  0.140E-04  0.467E-05  0.467E-05  0.467E-05
 -4.720  0.213E-04  0.710E-05  0.710E-05  0.710E-05
 -4.710  0.321E-04  0.107E-04  0.107E-04  0.107E-04
 -4.700  0.480E-04  0.160E-04  0.160E-04  0.160E-04
 -4.690  0.711E-04  0.237E-04  0.237E-04  0.237E-04
 -4.680  0.104E-03  0.347E-04  0.347E-04  0.347E-04
 -4.670  0.151E-03  0.505E-04  0.505E-04  0.505E-04
 -4.660  0.218E-03  0.727E-04  0.727E-04  0.727E-04
 -4.650  0.311E-03  0.104E-03  0.104E-03  0.104E-03
 -4.640  0.439E-03  0.146E-03  0.146E-03  0.146E-03
 -4.630  0.615E-03  0.205E-03  0.205E-03  0.205E-03
 -4.620  0.854E-03  0.285E-03  0.285E-03  0.285E-03
 -4.610  0.117E-02  0.391E-03  0.391E-03  0.391E-03
 -4.600  0.160E-02  0.533E-03  0.533E-03  0.533E-03
 -4.590  0.216E-02  0.720E-03  0.720E-03  0.720E-03
 -4.580  0.289E-02  0.964E-03  0.964E-03  0.964E-03
 -4.570  0.384E-02  0.128E-02  0.128E-02  0.128E-02
 -4.560  0.504E-02  0.168E-02  0.168E-02  0.168E-02
 -4.550  0.657E-02  0.219E-02  0.219E-02  0.219E-02
 -4.540  0.848E-02  0.283E-02  0.283E-02  0.283E-02
 -4.530  0.109E-01  0.362E-02  0.362E-02  0.362E-02
 -4.520  0.138E-01  0.459E-02  0.459E-02  0.459E-02
 -4.510  0.173E-01  0.577E-02  0.577E-02  0.577E-02
 -4.500  0.216E-01  0.718E-02  0.718E-02  0.718E-02
 -4.490  0.266E-01  0.887E-02  0.887E-02  0.887E-02
 -4.480  0.326E-01  0.109E-01  0.109E-01  0.109E-01
 -4.470  0.395E-01  0.132E-01  0.132E-01  0.132E-01
 -4.460  0.475E-01  0.158E-01  0.158E-01  0.158E-01
 -4.450  0.566E-01  0.189E-01  0.189E-01  0.189E-01
 -4.440  0.668E-01  0.223E-01  0.223E-01  0.223E-01
 -4.430  0.783E-01  0.261E-01  0.261E-01  0.261E-01
 -4.420  0.908E-01  0.303E-01  0.303E-01  0.303E-01
 -4.410  0.104E+00  0.348E-01  0.348E-01  0.348E-01
 -4.400  0.119E+00  0.397E-01  0.397E-01  0.397E-01
 -4.390  0.135E+00  0.449E-01  0.449E-01  0.449E-01
 -4.380  0.151E+00  0.503E-01  0.503E-01  0.503E-01
 -4.370  0.168E+00  0.559E-01  0.559E-01  0.559E-01
 -4.360  0.185E+00  0.615E-01  0.615E-01  0.615E-01
 -4.350  0.201E+00  0.671E-01  0.671E-01  0.671E-01
 -4.340  0.218E+00  0.727E-01  0.727E-01  0.727E-01
 -4.330  0.234E+00  0.780E-01  0.780E-01  0.780E-01
 -4.320  0.249E+00  0.830E-01  0.830E-01  0.830E-01
 -4.310  0.263E+00  0.876E-01  0.876E-01  0.876E-01
 -4.300  0.275E+00  0.917E-01  0.917E-01  0.917E-01
 -4.290  0.286E+00  0.953E-01  0.953E-01  0.953E-01
 -4.280  0.294E+00  0.981E-01  0.981E-01  0.981E-01
 -4.270  0.301E+00  0.100E+00  0.100E+00  0.100E+00
 -4.260  0.305E+00  0.102E+00  0.102E+00  0.102E+00
 -4.250  0.307E+00  0.102E+00  0.102E+00  0.102E+00
 -4.240  0.306E+00  0.102E+00  0.102E+00  0.102E+00
 -4.230  0.304E+00  0.101E+00  0.101E+00  0.101E+00
 -4.220  0.299E+00  0.997E-01  0.997E-01  0.997E-01
 -4.210  0.292E+00  0.975E-01  0.975E-01  0.975E-01
 -4.200  0.284E+00  0.947E-01  0.947E-01  0.947E-01
 -4.190  0.274E+00  0.914E-01  0.914E-01  0.914E-01
 -4.180  0.263E+00  0.877E-01  0.877E-01  0.877E-01
 -4.170  0.251E+00  0.836E-01  0.836E-01  0.836E-01
 -4.160  0.238E+00  0.793E-01  0.793E-01  0.793E-01
 -4.150  0.224E+00  0.748E-01  0.748E-01  0.748E-01
 -4.140  0.211E+00  0.702E-01  0.702E-01  0.702E-01
 -4.130  0.197E+00  0.656E-01  0.656E-01  0.656E-01
 -4.120  0.183E+00  0.610E-01  0.610E-01  0.610E-01
 -4.110  0.170E+00  0.565E-01  0.565E-01  0.565E-01
 -4.100  0.157E+00  0.522E-01  0.522E-01  0.522E-01
 -4.090  0.144E+00  0.480E-01  0.480E-01  0.480E-01
 -4.080  0.132E+00  0.440E-01  0.440E-01  0.440E-01
 -4.070  0.120E+00  0.402E-01  0.402E-01  0.402E-01
 -4.060  0.110E+00  0.366E-01  0.366E-01  0.366E-01
 -4.050  0.996E-01  0.332E-01  0.332E-01  0.332E-01
 -4.040  0.902E-01  0.301E-01  0.301E-01  0.301E-01
 -4.030  0.814E-01  0.271E-01  0.271E-01  0.271E-01
 -4.020  0.733E-01  0.244E-01  0.244E-01  0.244E-01
 -4.010  0.659E-01  0.220E-01  0.220E-01  0.220E-01
 -4.000  0.590E-01  0.197E-01  0.197E-01  0.197E-01
 -3.990  0.528E-01  0.176E-01  0.176E-01  0.176E-01
 -3.980  0.471E-01  0.157E-01  0.157E-01  0.157E-01
 -3.970  0.419E-01  0.140E-01  0.140E-01  0.140E-01
 -3.960  0.373E-01  0.124E-01  0.124E-01  0.124E-01
 -3.950  0.331E-01  0.110E-01  0.110E-01  0.110E-01
 -3.940  0.294E-01  0.980E-02  0.980E-02  0.980E-02
 -3.930  0.261E-01  0.871E-02  0.871E-02  0.871E-02
 -3.920  0.232E-01  0.775E-02  0.775E-02  0.775E-02
 -3.910  0.207E-01  0.691E-02  0.691E-02  0.691E-02
 -3.900  0.185E-01  0.618E-02  0.618E-02  0.618E-02
 -3.890  0.167E-01  0.556E-02  0.556E-02  0.556E-02
 -3.880  0.151E-01  0.503E-02  0.503E-02  0.503E-02
 -3.870  0.137E-01  0.458E-02  0.458E-02  0.458E-02
 -3.860  0.126E-01  0.421E-02  0.421E-02  0.421E-02
 -3.850  0.117E-01  0.390E-02  0.390E-02  0.390E-02
 -3.840  0.109E-01  0.365E-02  0.365E-02  0.365E-02
 -3.830  0.103E-01  0.344E-02  0.344E-02  0.344E-02
 -3.820  0.985E-02  0.328E-02  0.328E-02  0.328E-02
 -3.810  0.948E-02  0.316E-02  0.316E-02  0.316E-02
 -3.800  0.920E-02  0.307E-02  0.307E-02  0.307E-02
 -3.790  0.900E-02  0.300E-02  0.300E-02  0.300E-02
 -3.780  0.886E-02  0.295E-02  0.295E-02  0.295E-02
 -3.770  0.877E-02  0.292E-02  0.292E-02  0.292E-02
 -3.760  0.873E-02  0.291E-02  0.291E-02  0.291E-02
 -3.750  0.872E-02  0.291E-02  0.291E-02  0.291E-02
 -3.740  0.874E-02  0.291E-02  0.291E-02  0.291E-02
 -3.730  0.878E-02  0.293E-02  0.293E-02  0.293E-02
 -3.720  0.884E-02  0.295E-02  0.295E-02  0.295E-02
 -3.710  0.891E-02  0.297E-02  0.297E-02  0.297E-02
 -3.700  0.898E-02  0.299E-02  0.299E-02  0.299E-02
 -3.690  0.906E-02  0.302E-02  0.302E-02  0.302E-02
 -3.680  0.913E-02  0.304E-02  0.304E-02  0.304E-02
 -3.670  0.921E-02  0.307E-02  0.307E-02  0.307E-02
 -3.660  0.928E-02  0.309E-02  0.309E-02  0.309E-02
 -3.650  0.935E-02  0.312E-02  0.312E-02  0.312E-02
 -3.640  0.941E-02  0.314E-02  0.314E-02  0.314E-02
 -3.630  0.947E-02  0.316E-02  0.316E-02  0.316E-02
 -3.620  0.952E-02  0.317E-02  0.317E-02  0.317E-02
 -3.610  0.957E-02  0.319E-02  0.319E-02  0.319E-02
 -3.600  0.962E-02  0.321E-02  0.321E-02  0.321E-02
 -3.590  0.968E-02  0.323E-02  0.323E-02  0.323E-02
 -3.580  0.973E-02  0.324E-02  0.324E-02  0.324E-02
 -3.570  0.979E-02  0.326E-02  0.326E-02  0.326E-02
 -3.560  0.985E-02  0.328E-02  0.328E-02  0.328E-02
 -3.550  0.992E-02  0.331E-02  0.331E-02  0.331E-02
 -3.540  0.100E-01  0.333E-02  0.333E-02  0.333E-02
 -3.530  0.101E-01  0.336E-02  0.336E-02  0.336E-02
 -3.520  0.102E-01  0.339E-02  0.339E-02  0.339E-02
 -3.510  0.103E-01  0.342E-02  0.342E-02  0.342E-02
 -3.500  0.104E-01  0.345E-02  0.345E-02  0.345E-02
 -3.490  0.104E-01  0.348E-02  0.348E-02  0.348E-02
 -3.480  0.105E-01  0.351E-02  0.351E-02  0.351E-02
 -3.470  0.106E-01  0.354E-02  0.354E-02  0.354E-02
 -3.460  0.107E-01  0.357E-02  0.357E-02  0.357E-02
 -3.450  0.108E-01  0.360E-02  0.360E-02  0.360E-02
 -3.440  0.109E-01  0.362E-02  0.362E-02  0.362E-02
 -3.430  0.109E-01  0.364E-02  0.364E-02  0.364E-02
 -3.420  0.110E-01  0.366E-02  0.366E-02  0.366E-02
 -3.410  0.110E-01  0.367E-02  0.367E-02  0.367E-02
 -3.400  0.111E-01  0.369E-02  0.369E-02  0.369E-02
 -3.390  0.111E-01  0.370E-02  0.370E-02  0.370E-02
 -3.380  0.111E-01  0.370E-02  0.370E-02  0.370E-02
 -3.370  0.111E-01  0.371E-02  0.371E-02  0.371E-02
 -3.360  0.112E-01  0.372E-02  0.372E-02  0.372E-02
 -3.350  0.112E-01  0.373E-02  0.373E-02  0.373E-02
 -3.340  0.112E-01  0.374E-02  0.374E-02  0.374E-02
 -3.330  0.113E-01  0.375E-02  0.375E-02  0.375E-02
 -3.320  0.113E-01  0.377E-02  0.377E-02  0.377E-02
 -3.310  0.114E-01  0.379E-02  0.379E-02  0.379E-02
 -3.300  0.114E-01  0.381E-02  0.381E-02  0.381E-02
 -3.290  0.115E-01  0.383E-02  0.383E-02  0.383E-02
 -3.280  0.116E-01  0.386E-02  0.386E-02  0.386E-02
 -3.270  0.117E-01  0.389E-02  0.389E-02  0.389E-02
 -3.260  0.118E-01  0.392E-02  0.392E-02  0.392E-02
 -3.250  0.119E-01  0.395E-02  0.395E-02  0.395E-02
 -3.240  0.120E-01  0.398E-02  0.398E-02  0.398E-02
 -3.230  0.120E-01  0.401E-02  0.401E-02  0.401E-02
 -3.220  0.121E-01  0.404E-02  0.404E-02  0.404E-02
 -3.210  0.122E-01  0.407E-02  0.407E-02  0.407E-02
 -3.200  0.123E-01  0.409E-02  0.409E-02  0.409E-02
 -3.190  0.123E-01  0.410E-02  0.410E-02  0.410E-02
 -3.180  0.124E-01  0.412E-02  0.412E-02  0.412E-02
 -3.170  0.124E-01  0.413E-02  0.413E-02  0.413E-02
 -3.160  0.124E-01  0.413E-02  0.413E-02  0.413E-02
 -3.150  0.124E-01  0.414E-02  0.414E-02  0.414E-02
 -3.140  0.124E-01  0.414E-02  0.414E-02  0.414E-02
 -3.130  0.124E-01  0.414E-02  0.414E-02  0.414E-02
 -3.120  0.124E-01  0.414E-02  0.414E-02  0.414E-02
 -3.110  0.124E-01  0.414E-02  0.414E-02  0.414E-02
 -3.100  0.124E-01  0.414E-02  0.414E-02  0.414E-02
 -3.090  0.124E-01  0.415E-02  0.415E-02  0.415E-02
 -3.080  0.125E-01  0.416E-02  0.416E-02  0.416E-02
 -3.070  0.125E-01  0.417E-02  0.417E-02  0.417E-02
 -3.060  0.126E-01  0.418E-02  0.418E-02  0.418E-02
 -3.050  0.126E-01  0.420E-02  0.420E-02  0.420E-02
 -3.040  0.127E-01  0.422E-02  0.422E-02  0.422E-02
 -3.030  0.127E-01  0.425E-02  0.425E-02  0.425E-02
 -3.020  0.128E-01  0.428E-02  0.428E-02  0.428E-02
 -3.010  0.129E-01  0.431E-02  0.431E-02  0.431E-02
 -3.000  0.130E-01  0.433E-02  0.433E-02  0.433E-02
 -2.990  0.131E-01  0.436E-02  0.436E-02  0.436E-02
 -2.980  0.132E-01  0.439E-02  0.439E-02  0.439E-02
 -2.970  0.132E-01  0.441E-02  0.441E-02  0.441E-02
 -2.960  0.133E-01  0.443E-02  0.443E-02  0.443E-02
 -2.950  0.134E-01  0.445E-02  0.445E-02  0.445E-02
 -2.940  0.134E-01  0.446E-02  0.446E-02  0.446E-02
 -2.930  0.134E-01  0.447E-02  0.447E-02  0.447E-02
 -2.920  0.134E-01  0.448E-02  0.448E-02  0.448E-02
 -2.910  0.134E-01  0.448E-02  0.448E-02  0.448E-02
 -2.900  0.134E-01  0.448E-02  0.448E-02  0.448E-02
 -2.890  0.134E-01  0.447E-02  0.447E-02  0.447E-02
 -2.880  0.134E-01  0.447E-02  0.447E-02  0.447E-02
 -2.870  0.134E-01  0.446E-02  0.446E-02  0.446E-02
 -2.860  0.134E-01  0.446E-02  0.446E-02  0.446E-02
 -2.850  0.134E-01  0.446E-02  0.446E-02  0.446E-02
 -2.840  0.134E-01  0.446E-02  0.446E-02  0.446E-02
 -2.830  0.134E-01  0.446E-02  0.446E-02  0.446E-02
 -2.820  0.134E-01  0.447E-02  0.447E-02  0.447E-02
 -2.810  0.134E-01  0.447E-02  0.447E-02  0.447E-02
 -2.800  0.135E-01  0.449E-02  0.449E-02  0.449E-02
 -2.790  0.135E-01  0.450E-02  0.450E-02  0.450E-02
 -2.780  0.136E-01  0.452E-02  0.452E-02  0.452E-02
 -2.770  0.136E-01  0.454E-02  0.454E-02  0.454E-02
 -2.760  0.137E-01  0.456E-02  0.456E-02  0.456E-02
 -2.750  0.138E-01  0.459E-02  0.459E-02  0.459E-02
 -2.740  0.138E-01  0.461E-02  0.461E-02  0.461E-02
 -2.730  0.139E-01  0.463E-02  0.463E-02  0.463E-02
 -2.720  0.139E-01  0.464E-02  0.464E-02  0.464E-02
 -2.710  0.140E-01  0.466E-02  0.466E-02  0.466E-02
 -2.700  0.140E-01  0.467E-02  0.467E-02  0.467E-02
 -2.690  0.140E-01  0.467E-02  0.467E-02  0.467E-02
 -2.680  0.140E-01  0.468E-02  0.468E-02  0.468E-02
 -2.670  0.140E-01  0.467E-02  0.467E-02  0.467E-02
 -2.660  0.140E-01  0.467E-02  0.467E-02  0.467E-02
 -2.650  0.140E-01  0.466E-02  0.466E-02  0.466E-02
 -2.640  0.140E-01  0.466E-02  0.466E-02  0.466E-02
 -2.630  0.139E-01  0.465E-02  0.465E-02  0.465E-02
 -2.620  0.139E-01  0.464E-02  0.464E-02  0.464E-02
 -2.610  0.139E-01  0.463E-02  0.463E-02  0.463E-02
 -2.600  0.139E-01  0.462E-02  0.462E-02  0.462E-02
 -2.590  0.139E-01  0.462E-02  0.462E-02  0.462E-02
 -2.580  0.139E-01  0.462E-02  0.462E-02  0.462E-02
 -2.570  0.139E-01  0.462E-02  0.462E-02  0.462E-02
 -2.560  0.139E-01  0.462E-02  0.462E-02  0.462E-02
 -2.550  0.139E-01  0.463E-02  0.463E-02  0.463E-02
 -2.540  0.139E-01  0.464E-02  0.464E-02  0.464E-02
 -2.530  0.139E-01  0.465E-02  0.465E-02  0.465E-02
 -2.520  0.140E-01  0.466E-02  0.466E-02  0.466E-02
 -2.510  0.140E-01  0.467E-02  0.467E-02  0.467E-02
 -2.500  0.140E-01  0.468E-02  0.468E-02  0.468E-02
 -2.490  0.140E-01  0.468E-02  0.468E-02  0.468E-02
 -2.480  0.141E-01  0.469E-02  0.469E-02  0.469E-02
 -2.470  0.141E-01  0.469E-02  0.469E-02  0.469E-02
 -2.460  0.141E-01  0.469E-02  0.469E-02  0.469E-02
 -2.450  0.141E-01  0.468E-02  0.468E-02  0.468E-02
 -2.440  0.140E-01  0.468E-02  0.468E-02  0.468E-02
 -2.430  0.140E-01  0.467E-02  0.467E-02  0.467E-02
 -2.420  0.140E-01  0.466E-02  0.466E-02  0.466E-02
 -2.410  0.139E-01  0.464E-02  0.464E-02  0.464E-02
 -2.400  0.139E-01  0.463E-02  0.463E-02  0.463E-02
 -2.390  0.138E-01  0.461E-02  0.461E-02  0.461E-02
 -2.380  0.138E-01  0.459E-02  0.459E-02  0.459E-02
 -2.370  0.137E-01  0.458E-02  0.458E-02  0.458E-02
 -2.360  0.137E-01  0.456E-02  0.456E-02  0.456E-02
 -2.350  0.136E-01  0.454E-02  0.454E-02  0.454E-02
 -2.340  0.136E-01  0.452E-02  0.452E-02  0.452E-02
 -2.330  0.135E-01  0.450E-02  0.450E-02  0.450E-02
 -2.320  0.135E-01  0.449E-02  0.449E-02  0.449E-02
 -2.310  0.134E-01  0.447E-02  0.447E-02  0.447E-02
 -2.300  0.133E-01  0.444E-02  0.444E-02  0.444E-02
 -2.290  0.133E-01  0.442E-02  0.442E-02  0.442E-02
 -2.280  0.132E-01  0.439E-02  0.439E-02  0.439E-02
 -2.270  0.131E-01  0.437E-02  0.437E-02  0.437E-02
 -2.260  0.130E-01  0.434E-02  0.434E-02  0.434E-02
 -2.250  0.129E-01  0.430E-02  0.430E-02  0.430E-02
 -2.240  0.128E-01  0.426E-02  0.426E-02  0.426E-02
 -2.230  0.127E-01  0.422E-02  0.422E-02  0.422E-02
 -2.220  0.125E-01  0.418E-02  0.418E-02  0.418E-02
 -2.210  0.124E-01  0.413E-02  0.413E-02  0.413E-02
 -2.200  0.123E-01  0.408E-02  0.408E-02  0.408E-02
 -2.190  0.121E-01  0.403E-02  0.403E-02  0.403E-02
 -2.180  0.119E-01  0.398E-02  0.398E-02  0.398E-02
 -2.170  0.118E-01  0.392E-02  0.392E-02  0.392E-02
 -2.160  0.116E-01  0.386E-02  0.386E-02  0.386E-02
 -2.150  0.114E-01  0.380E-02  0.380E-02  0.380E-02
 -2.140  0.112E-01  0.374E-02  0.374E-02  0.374E-02
 -2.130  0.110E-01  0.367E-02  0.367E-02  0.367E-02
 -2.120  0.108E-01  0.361E-02  0.361E-02  0.361E-02
 -2.110  0.106E-01  0.354E-02  0.354E-02  0.354E-02
 -2.100  0.104E-01  0.347E-02  0.347E-02  0.347E-02
 -2.090  0.102E-01  0.339E-02  0.339E-02  0.339E-02
 -2.080  0.994E-02  0.331E-02  0.331E-02  0.331E-02
 -2.070  0.969E-02  0.323E-02  0.323E-02  0.323E-02
 -2.060  0.944E-02  0.315E-02  0.315E-02  0.315E-02
 -2.050  0.918E-02  0.306E-02  0.306E-02  0.306E-02
 -2.040  0.891E-02  0.297E-02  0.297E-02  0.297E-02
 -2.030  0.863E-02  0.288E-02  0.288E-02  0.288E-02
 -2.020  0.834E-02  0.278E-02  0.278E-02  0.278E-02
 -2.010  0.805E-02  0.268E-02  0.268E-02  0.268E-02
 -2.000  0.774E-02  0.258E-02  0.258E-02  0.258E-02
 -1.990  0.743E-02  0.248E-02  0.248E-02  0.248E-02
 -1.980  0.711E-02  0.237E-02  0.237E-02  0.237E-02
 -1.970  0.679E-02  0.226E-02  0.226E-02  0.226E-02
 -1.960  0.646E-02  0.215E-02  0.215E-02  0.215E-02
 -1.950  0.613E-02  0.204E-02  0.204E-02  0.204E-02
 -1.940  0.579E-02  0.193E-02  0.193E-02  0.193E-02
 -1.930  0.546E-02  0.182E-02  0.182E-02  0.182E-02
 -1.920  0.512E-02  0.171E-02  0.171E-02  0.171E-02
 -1.910  0.479E-02  0.160E-02  0.160E-02  0.160E-02
 -1.900  0.445E-02  0.148E-02  0.148E-02  0.148E-02
 -1.890  0.413E-02  0.138E-02  0.138E-02  0.138E-02
 -1.880  0.381E-02  0.127E-02  0.127E-02  0.127E-02
 -1.870  0.350E-02  0.117E-02  0.117E-02  0.117E-02
 -1.860  0.319E-02  0.106E-02  0.106E-02  0.106E-02
 -1.850  0.290E-02  0.967E-03  0.967E-03  0.967E-03
 -1.840  0.262E-02  0.875E-03  0.875E-03  0.875E-03
 -1.830  0.236E-02  0.786E-03  0.786E-03  0.786E-03
 -1.820  0.211E-02  0.703E-03  0.703E-03  0.703E-03
 -1.810  0.187E-02  0.624E-03  0.624E-03  0.624E-03
 -1.800  0.165E-02  0.551E-03  0.551E-03  0.551E-03
 -1.790  0.145E-02  0.484E-03  0.484E-03  0.484E-03
 -1.780  0.127E-02  0.422E-03  0.422E-03  0.422E-03
 -1.770  0.110E-02  0.365E-03  0.365E-03  0.365E-03
 -1.760  0.943E-03  0.314E-03  0.314E-03  0.314E-03
 -1.750  0.806E-03  0.269E-03  0.269E-03  0.269E-03
 -1.740  0.684E-03  0.228E-03  0.228E-03  0.228E-03
 -1.730  0.576E-03  0.192E-03  0.192E-03  0.192E-03
 -1.720  0.482E-03  0.161E-03  0.161E-03  0.161E-03
 -1.710  0.400E-03  0.133E-03  0.133E-03  0.133E-03
 -1.700  0.330E-03  0.110E-03  0.110E-03  0.110E-03
 -1.690  0.270E-03  0.899E-04  0.899E-04  0.899E-04
 -1.680  0.219E-03  0.729E-04  0.729E-04  0.729E-04
 -1.670  0.176E-03  0.587E-04  0.587E-04  0.587E-04
 -1.660  0.141E-03  0.469E-04  0.469E-04  0.469E-04
 -1.650  0.112E-03  0.372E-04  0.372E-04  0.372E-04
 -1.640  0.876E-04  0.292E-04  0.292E-04  0.292E-04
 -1.630  0.683E-04  0.228E-04  0.228E-04  0.228E-04
 -1.620  0.528E-04  0.176E-04  0.176E-04  0.176E-04
 -1.610  0.405E-04  0.135E-04  0.135E-04  0.135E-04
 -1.600  0.308E-04  0.103E-04  0.103E-04  0.103E-04
 -1.590  0.232E-04  0.773E-05  0.773E-05  0.773E-05
 -1.580  0.173E-04  0.578E-05  0.578E-05  0.578E-05
 -1.570  0.128E-04  0.428E-05  0.428E-05  0.428E-05
 -1.560  0.942E-05  0.314E-05  0.314E-05  0.314E-05
 -1.550  0.686E-05  0.229E-05  0.229E-05  0.229E-05
 -1.540  0.495E-05  0.165E-05  0.165E-05  0.165E-05
 -1.530  0.354E-05  0.118E-05  0.118E-05  0.118E-05
 -1.520  0.251E-05  0.835E-06  0.835E-06  0.835E-06
 -1.510  0.176E-05  0.587E-06  0.587E-06  0.587E-06
 -1.500  0.122E-05  0.408E-06  0.408E-06  0.408E-06
 -1.490  0.844E-06  0.281E-06  0.281E-06  0.281E-06
 -1.480  0.577E-06  0.192E-06  0.192E-06  0.192E-06
 -1.470  0.390E-06  0.130E-06  0.130E-06  0.130E-06
 -1.460  0.262E-06  0.873E-07  0.873E-07  0.873E-07
 -1.450  0.174E-06  0.580E-07  0.580E-07  0.580E-07
 -1.440  0.114E-06  0.381E-07  0.381E-07  0.381E-07
 -1.430  0.746E-07  0.249E-07  0.249E-07  0.249E-07
 -1.420  0.482E-07  0.161E-07  0.161E-07  0.161E-07
 -1.410  0.308E-07  0.103E-07  0.103E-07  0.103E-07
 -1.400  0.195E-07  0.651E-08  0.651E-08  0.651E-08
 -1.390  0.122E-07  0.408E-08  0.408E-08  0.408E-08
 -1.380  0.761E-08  0.254E-08  0.254E-08  0.254E-08
 -1.370  0.468E-08  0.156E-08  0.156E-08  0.156E-08
 -1.360  0.286E-08  0.952E-09  0.952E-09  0.952E-09
 -1.350  0.172E-08  0.574E-09  0.574E-09  0.574E-09
 -1.340  0.103E-08  0.343E-09  0.343E-09  0.343E-09
 -1.330  0.610E-09  0.203E-09  0.203E-09  0.203E-09
 -1.320  0.357E-09  0.119E-09  0.119E-09  0.119E-09
 -1.310  0.207E-09  0.691E-10  0.691E-10  0.691E-10
 -1.300  0.119E-09  0.397E-10  0.397E-10  0.397E-10
 -1.290  0.678E-10  0.226E-10  0.226E-10  0.226E-10
 -1.280  0.382E-10  0.127E-10  0.127E-10  0.127E-10
 -1.270  0.213E-10  0.710E-11  0.710E-11  0.710E-11
 -1.260  0.118E-10  0.392E-11  0.392E-11  0.392E-11
 -1.250  0.643E-11  0.214E-11  0.214E-11  0.214E-11
 -1.240  0.348E-11  0.116E-11  0.116E-11  0.116E-11
 -1.230  0.186E-11  0.621E-12  0.621E-12  0.621E-12
 -1.220  0.987E-12  0.329E-12  0.329E-12  0.329E-12
 -1.210  0.518E-12  0.173E-12  0.173E-12  0.173E-12
 -1.200  0.269E-12  0.896E-13  0.896E-13  0.896E-13
 -1.190  0.137E-12  0.458E-13  0.458E-13  0.458E-13
 -1.180  0.694E-13  0.231E-13  0.231E-13  0.231E-13
 -1.170  0.349E-13  0.116E-13  0.116E-13  0.116E-13
 -1.160  0.170E-13  0.566E-14  0.566E-14  0.566E-14
 -1.150  0.829E-14  0.276E-14  0.276E-14  0.276E-14
 -1.140  0.384E-14  0.128E-14  0.128E-14  0.128E-14
 -1.130  0.159E-14  0.529E-15  0.529E-15  0.529E-15
 -1.120  0.751E-15  0.250E-15  0.250E-15  0.250E-15
 -1.110  0.300E-15  0.100E-15  0.100E-15  0.100E-15
 -1.100  0.657E-16  0.219E-16  0.219E-16  0.219E-16
 -1.090  0.312E-16  0.104E-16  0.104E-16  0.104E-16
 -1.080  0.000E+00  0.000E+00  0.000E+00  0.000E+00
 -1.070  0.000E+00  0.000E+00  0.000E+00  0.000E+00
 -1.060  0.000E+00  0.000E+00  0.000E+00  0.000E+00
 -1.050  0.000E+00  0.000E+00  0.000E+00  0.000E+00
 -1.040  0.000E+00  0.000E+00  0.000E+00  0.000E+00
 -1.030  0.000E+00  0.000E+00  0.000E+00  0.000E+00
 -1.020  0.000E+00  0.000E+00  0.000E+00  0.000E+00
 -1.010  0.000E+00  0.000E+00  0.000E+00  0.000E+00
 -1.000  0.000E+00  0.000E+00  0.000E+00  0.000E+00
 -0.990  0.000E+00  0.000E+00  0.000E+00  0.000E+00
 -0.980  0.000E+00  0.000E+00  0.000E+00  0.000E+00
 -0.970  0.000E+00  0.000E+00  0.000E+00  0.000E+00
 -0.960  0.000E+00  0.000E+00  0.000E+00  0.000E+00
 -0.950  0.000E+00  0.000E+00  0.000E+00  0.000E+00
 -0.940  0.000E+00  0.000E+00  0.000E+00  0.000E+00
 -0.930  0.000E+00  0.000E+00  0.000E+00  0.000E+00
 -0.920  0.000E+00  0.000E+00  0.000E+00  0.000E+00
 -0.910  0.000E+00  0.000E+00  0.000E+00  0.000E+00
 -0.900  0.000E+00  0.000E+00  0.000E+00  0.000E+00
 -0.890  0.000E+00  0.000E+00  0.000E+00  0.000E+00
 -0.880  0.000E+00  0.000E+00  0.000E+00  0.000E+00
 -0.870  0.000E+00  0.000E+00  0.000E+00  0.000E+00
 -0.860  0.000E+00  0.000E+00  0.000E+00  0.000E+00
 -0.850  0.000E+00  0.000E+00  0.000E+00  0.000E+00
 -0.840  0.000E+00  0.000E+00  0.000E+00  0.000E+00
 -0.830  0.000E+00  0.000E+00  0.000E+00  0.000E+00
 -0.820  0.000E+00  0.000E+00  0.000E+00  0.000E+00
 -0.810  0.000E+00  0.000E+00  0.000E+00  0.000E+00
 -0.800  0.000E+00  0.000E+00  0.000E+00  0.000E+00
 -0.790  0.000E+00  0.000E+00  0.000E+00  0.000E+00
 -0.780  0.000E+00  0.000E+00  0.000E+00  0.000E+00
 -0.770  0.000E+00  0.000E+00  0.000E+00  0.000E+00
 -0.760  0.000E+00  0.000E+00  0.000E+00  0.000E+00
 -0.750  0.000E+00  0.000E+00  0.000E+00  0.000E+00
 -0.740  0.000E+00  0.000E+00  0.000E+00  0.000E+00
 -0.730  0.000E+00  0.000E+00  0.000E+00  0.000E+00
 -0.720  0.000E+00  0.000E+00  0.000E+00  0.000E+00
 -0.710  0.000E+00  0.000E+00  0.000E+00  0.000E+00
 -0.700  0.000E+00  0.000E+00  0.000E+00  0.000E+00
 -0.690  0.000E+00  0.000E+00  0.000E+00  0.000E+00
 -0.680  0.000E+00  0.000E+00  0.000E+00  0.000E+00
 -0.670  0.000E+00  0.000E+00  0.000E+00  0.000E+00
 -0.660  0.000E+00  0.000E+00  0.000E+00  0.000E+00
 -0.650  0.000E+00  0.000E+00  0.000E+00  0.000E+00
 -0.640  0.000E+00  0.000E+00  0.000E+00  0.000E+00
 -0.630  0.000E+00  0.000E+00  0.000E+00  0.000E+00
 -0.620  0.000E+00  0.000E+00  0.000E+00  0.000E+00
 -0.610  0.000E+00  0.000E+00  0.000E+00  0.000E+00
 -0.600  0.000E+00  0.000E+00  0.000E+00  0.000E+00
 -0.590  0.000E+00  0.000E+00  0.000E+00  0.000E+00
 -0.580  0.000E+00  0.000E+00  0.000E+00  0.000E+00
 -0.570  0.000E+00  0.000E+00  0.000E+00  0.000E+00
 -0.560  0.000E+00  0.000E+00  0.000E+00  0.000E+00
 -0.550  0.000E+00  0.000E+00  0.000E+00  0.000E+00
 -0.540  0.000E+00  0.000E+00  0.000E+00  0.000E+00
 -0.530  0.000E+00  0.000E+00  0.000E+00  0.000E+00
 -0.520  0.000E+00  0.000E+00  0.000E+00  0.000E+00
 -0.510  0.000E+00  0.000E+00  0.000E+00  0.000E+00
 -0.500  0.000E+00  0.000E+00  0.000E+00  0.000E+00
 -0.490  0.000E+00  0.000E+00  0.000E+00  0.000E+00
 -0.480  0.000E+00  0.000E+00  0.000E+00  0.000E+00
 -0.470  0.000E+00  0.000E+00  0.000E+00  0.000E+00
 -0.460  0.000E+00  0.000E+00  0.000E+00  0.000E+00
 -0.450  0.000E+00  0.000E+00  0.000E+00  0.000E+00
 -0.440  0.000E+00  0.000E+00  0.000E+00  0.000E+00
 -0.430  0.000E+00  0.000E+00  0.000E+00  0.000E+00
 -0.420  0.000E+00  0.000E+00  0.000E+00  0.000E+00
 -0.410  0.000E+00  0.000E+00  0.000E+00  0.000E+00
 -0.400  0.000E+00  0.000E+00  0.000E+00  0.000E+00
 -0.390  0.000E+00  0.000E+00  0.000E+00  0.000E+00
 -0.380  0.000E+00  0.000E+00  0.000E+00  0.000E+00
 -0.370  0.000E+00  0.000E+00  0.000E+00  0.000E+00
 -0.360  0.000E+00  0.000E+00  0.000E+00  0.000E+00
 -0.350  0.000E+00  0.000E+00  0.000E+00  0.000E+00
 -0.340  0.000E+00  0.000E+00  0.000E+00  0.000E+00
 -0.330  0.000E+00  0.000E+00  0.000E+00  0.000E+00
 -0.320  0.000E+00  0.000E+00  0.000E+00  0.000E+00
 -0.310  0.000E+00  0.000E+00  0.000E+00  0.000E+00
 -0.300  0.000E+00  0.000E+00  0.000E+00  0.000E+00
 -0.290  0.000E+00  0.000E+00  0.000E+00  0.000E+00
 -0.280  0.000E+00  0.000E+00  0.000E+00  0.000E+00
 -0.270  0.000E+00  0.000E+00  0.000E+00  0.000E+00
 -0.260  0.000E+00  0.000E+00  0.000E+00  0.000E+00
 -0.250  0.000E+00  0.000E+00  0.000E+00  0.000E+00
 -0.240  0.000E+00  0.000E+00  0.000E+00  0.000E+00
 -0.230  0.000E+00  0.000E+00  0.000E+00  0.000E+00
 -0.220  0.000E+00  0.000E+00  0.000E+00  0.000E+00
 -0.210  0.000E+00  0.000E+00  0.000E+00  0.000E+00
 -0.200  0.000E+00  0.000E+00  0.000E+00  0.000E+00
 -0.190  0.000E+00  0.000E+00  0.000E+00  0.000E+00
 -0.180  0.000E+00  0.000E+00  0.000E+00  0.000E+00
 -0.170  0.000E+00  0.000E+00  0.000E+00  0.000E+00
 -0.160  0.000E+00  0.000E+00  0.000E+00  0.000E+00
 -0.150  0.000E+00  0.000E+00  0.000E+00  0.000E+00
 -0.140  0.000E+00  0.000E+00  0.000E+00  0.000E+00
 -0.130  0.000E+00  0.000E+00  0.000E+00  0.000E+00
 -0.120  0.000E+00  0.000E+00  0.000E+00  0.000E+00
 -0.110  0.000E+00  0.000E+00  0.000E+00  0.000E+00
 -0.100  0.000E+00  0.000E+00  0.000E+00  0.000E+00
 -0.090  0.000E+00  0.000E+00  0.000E+00  0.000E+00
 -0.080  0.000E+00  0.000E+00  0.000E+00  0.000E+00
 -0.070  0.000E+00  0.000E+00  0.000E+00  0.000E+00
 -0.060  0.000E+00  0.000E+00  0.000E+00  0.000E+00
 -0.050  0.000E+00  0.000E+00  0.000E+00  0.000E+00
 -0.040  0.000E+00  0.000E+00  0.000E+00  0.000E+00
 -0.030  0.000E+00  0.000E+00  0.000E+00  0.000E+00
 -0.020  0.000E+00  0.000E+00  0.000E+00  0.000E+00
 -0.010  0.000E+00  0.000E+00  0.000E+00  0.000E+00
  0.000  0.000E+00  0.000E+00  0.000E+00  0.000E+00
  0.010  0.000E+00  0.000E+00  0.000E+00  0.000E+00
  0.020  0.000E+00  0.000E+00  0.000E+00  0.000E+00
  0.030  0.000E+00  0.000E+00  0.000E+00  0.000E+00
  0.040  0.000E+00  0.000E+00  0.000E+00  0.000E+00
  0.050  0.000E+00  0.000E+00  0.000E+00  0.000E+00
  0.060  0.000E+00  0.000E+00  0.000E+00  0.000E+00
  0.070  0.000E+00  0.000E+00  0.000E+00  0.000E+00
  0.080  0.000E+00  0.000E+00  0.000E+00  0.000E+00
  0.090  0.000E+00  0.000E+00  0.000E+00  0.000E+00
  0.100  0.000E+00  0.000E+00  0.000E+00  0.000E+00
  0.110  0.000E+00  0.000E+00  0.000E+00  0.000E+00
  0.120  0.000E+00  0.000E+00  0.000E+00  0.000E+00
  0.130  0.000E+00  0.000E+00  0.000E+00  0.000E+00
  0.140  0.000E+00  0.000E+00  0.000E+00  0.000E+00
  0.150  0.000E+00  0.000E+00  0.000E+00  0.000E+00
  0.160  0.000E+00  0.000E+00  0.000E+00  0.000E+00
  0.170  0.000E+00  0.000E+00  0.000E+00  0.000E+00
  0.180  0.000E+00  0.000E+00  0.000E+00  0.000E+00
  0.190  0.000E+00  0.000E+00  0.000E+00  0.000E+00
  0.200  0.000E+00  0.000E+00  0.000E+00  0.000E+00
  0.210  0.000E+00  0.000E+00  0.000E+00  0.000E+00
  0.220  0.000E+00  0.000E+00  0.000E+00  0.000E+00
  0.230  0.000E+00  0.000E+00  0.000E+00  0.000E+00
  0.240  0.000E+00  0.000E+00  0.000E+00  0.000E+00
  0.250  0.000E+00  0.000E+00  0.000E+00  0.000E+00
  0.260  0.000E+00  0.000E+00  0.000E+00  0.000E+00
  0.270  0.000E+00  0.000E+00  0.000E+00  0.000E+00
  0.280  0.000E+00  0.000E+00  0.000E+00  0.000E+00
  0.290  0.000E+00  0.000E+00  0.000E+00  0.000E+00
  0.300  0.000E+00  0.000E+00  0.000E+00  0.000E+00
  0.310  0.000E+00  0.000E+00  0.000E+00  0.000E+00
  0.320  0.000E+00  0.000E+00  0.000E+00  0.000E+00
  0.330  0.000E+00  0.000E+00  0.000E+00  0.000E+00
  0.340  0.000E+00  0.000E+00  0.000E+00  0.000E+00
  0.350  0.000E+00  0.000E+00  0.000E+00  0.000E+00
  0.360  0.000E+00  0.000E+00  0.000E+00  0.000E+00
  0.370  0.000E+00  0.000E+00  0.000E+00  0.000E+00
  0.380  0.000E+00  0.000E+00  0.000E+00  0.000E+00
  0.390  0.000E+00  0.000E+00  0.000E+00  0.000E+00
  0.400  0.000E+00  0.000E+00  0.000E+00  0.000E+00
  0.410  0.000E+00  0.000E+00  0.000E+00  0.000E+00
  0.420  0.000E+00  0.000E+00  0.000E+00  0.000E+00
  0.430  0.000E+00  0.000E+00  0.000E+00  0.000E+00
  0.440  0.000E+00  0.000E+00  0.000E+00  0.000E+00
  0.450  0.000E+00  0.000E+00  0.000E+00  0.000E+00
  0.460  0.000E+00  0.000E+00  0.000E+00  0.000E+00
  0.470  0.000E+00  0.000E+00  0.000E+00  0.000E+00
  0.480  0.000E+00  0.000E+00  0.000E+00  0.000E+00
  0.490  0.000E+00  0.000E+00  0.000E+00  0.000E+00
  0.500  0.000E+00  0.000E+00  0.000E+00  0.000E+00
  0.510  0.000E+00  0.000E+00  0.000E+00  0.000E+00
  0.520  0.000E+00  0.000E+00  0.000E+00  0.000E+00
  0.530  0.000E+00  0.000E+00  0.000E+00  0.000E+00
  0.540  0.000E+00  0.000E+00  0.000E+00  0.000E+00
  0.550  0.000E+00  0.000E+00  0.000E+00  0.000E+00
  0.560  0.000E+00  0.000E+00  0.000E+00  0.000E+00
  0.570  0.000E+00  0.000E+00  0.000E+00  0.000E+00
  0.580  0.000E+00  0.000E+00  0.000E+00  0.000E+00
  0.590  0.000E+00  0.000E+00  0.000E+00  0.000E+00
  0.600  0.000E+00  0.000E+00  0.000E+00  0.000E+00
  0.610  0.000E+00  0.000E+00  0.000E+00  0.000E+00
  0.620  0.000E+00  0.000E+00  0.000E+00  0.000E+00
  0.630  0.000E+00  0.000E+00  0.000E+00  0.000E+00
  0.640  0.000E+00  0.000E+00  0.000E+00  0.000E+00
  0.650  0.000E+00  0.000E+00  0.000E+00  0.000E+00
  0.660  0.000E+00  0.000E+00  0.000E+00  0.000E+00
  0.670  0.000E+00  0.000E+00  0.000E+00  0.000E+00
  0.680  0.000E+00  0.000E+00  0.000E+00  0.000E+00
  0.690  0.000E+00  0.000E+00  0.000E+00  0.000E+00
  0.700  0.000E+00  0.000E+00  0.000E+00  0.000E+00
  0.710  0.000E+00  0.000E+00  0.000E+00  0.000E+00
  0.720  0.000E+00  0.000E+00  0.000E+00  0.000E+00
  0.730  0.000E+00  0.000E+00  0.000E+00  0.000E+00
  0.740  0.000E+00  0.000E+00  0.000E+00  0.000E+00
  0.750  0.000E+00  0.000E+00  0.000E+00  0.000E+00
  0.760  0.000E+00  0.000E+00  0.000E+00  0.000E+00
  0.770  0.000E+00  0.000E+00  0.000E+00  0.000E+00
  0.780  0.000E+00  0.000E+00  0.000E+00  0.000E+00
  0.790  0.000E+00  0.000E+00  0.000E+00  0.000E+00
  0.800  0.000E+00  0.000E+00  0.000E+00  0.000E+00
  0.810  0.000E+00  0.000E+00  0.000E+00  0.000E+00
  0.820  0.000E+00  0.000E+00  0.000E+00  0.000E+00
  0.830  0.000E+00  0.000E+00  0.000E+00  0.000E+00
  0.840  0.000E+00  0.000E+00  0.000E+00  0.000E+00
  0.850  0.000E+00  0.000E+00  0.000E+00  0.000E+00
  0.860  0.000E+00  0.000E+00  0.000E+00  0.000E+00
  0.870  0.000E+00  0.000E+00  0.000E+00  0.000E+00
  0.880  0.000E+00  0.000E+00  0.000E+00  0.000E+00
  0.890  0.000E+00  0.000E+00  0.000E+00  0.000E+00
  0.900  0.000E+00  0.000E+00  0.000E+00  0.000E+00
  0.910  0.000E+00  0.000E+00  0.000E+00  0.000E+00
  0.920  0.000E+00  0.000E+00  0.000E+00  0.000E+00
  0.930  0.000E+00  0.000E+00  0.000E+00  0.000E+00
  0.940  0.000E+00  0.000E+00  0.000E+00  0.000E+00
  0.950  0.000E+00  0.000E+00  0.000E+00  0.000E+00
  0.960  0.000E+00  0.000E+00  0.000E+00  0.000E+00
  0.970  0.000E+00  0.000E+00  0.000E+00  0.000E+00
  0.980  0.000E+00  0.000E+00  0.000E+00  0.000E+00
  0.990  0.000E+00  0.000E+00  0.000E+00  0.000E+00
  1.000  0.000E+00  0.000E+00  0.000E+00  0.000E+00
  1.010  0.000E+00  0.000E+00  0.000E+00  0.000E+00
  1.020  0.000E+00  0.000E+00  0.000E+00  0.000E+00
  1.030  0.000E+00  0.000E+00  0.000E+00  0.000E+00
  1.040  0.000E+00  0.000E+00  0.000E+00  0.000E+00
  1.050  0.000E+00  0.000E+00  0.000E+00  0.000E+00
  1.060  0.000E+00  0.000E+00  0.000E+00  0.000E+00
  1.070  0.000E+00  0.000E+00  0.000E+00  0.000E+00
  1.080  0.000E+00  0.000E+00  0.000E+00  0.000E+00
  1.090  0.000E+00  0.000E+00  0.000E+00  0.000E+00
  1.100  0.000E+00  0.000E+00  0.000E+00  0.000E+00
  1.110  0.000E+00  0.000E+00  0.000E+00  0.000E+00
  1.120  0.000E+00  0.000E+00  0.000E+00  0.000E+00
  1.130  0.000E+00  0.000E+00  0.000E+00  0.000E+00
  1.140  0.000E+00  0.000E+00  0.000E+00  0.000E+00
  1.150  0.000E+00  0.000E+00  0.000E+00  0.000E+00
  1.160  0.000E+00  0.000E+00  0.000E+00  0.000E+00
  1.170  0.000E+00  0.000E+00  0.000E+00  0.000E+00
  1.180  0.000E+00  0.000E+00  0.000E+00  0.000E+00
  1.190  0.000E+00  0.000E+00  0.000E+00  0.000E+00
  1.200  0.000E+00  0.000E+00  0.000E+00  0.000E+00
  1.210  0.000E+00  0.000E+00  0.000E+00  0.000E+00
  1.220  0.000E+00  0.000E+00  0.000E+00  0.000E+00
  1.230  0.000E+00  0.000E+00  0.000E+00  0.000E+00
  1.240  0.000E+00  0.000E+00  0.000E+00  0.000E+00
  1.250  0.000E+00  0.000E+00  0.000E+00  0.000E+00
  1.260  0.000E+00  0.000E+00  0.000E+00  0.000E+00
  1.270  0.000E+00  0.000E+00  0.000E+00  0.000E+00
  1.280  0.000E+00  0.000E+00  0.000E+00  0.000E+00
  1.290  0.000E+00  0.000E+00  0.000E+00  0.000E+00
  1.300  0.000E+00  0.000E+00  0.000E+00  0.000E+00
  1.310  0.000E+00  0.000E+00  0.000E+00  0.000E+00
  1.320  0.000E+00  0.000E+00  0.000E+00  0.000E+00
  1.330  0.000E+00  0.000E+00  0.000E+00  0.000E+00
  1.340  0.000E+00  0.000E+00  0.000E+00  0.000E+00
  1.350  0.000E+00  0.000E+00  0.000E+00  0.000E+00
  1.360  0.000E+00  0.000E+00  0.000E+00  0.000E+00
  1.370  0.000E+00  0.000E+00  0.000E+00  0.000E+00
  1.380  0.000E+00  0.000E+00  0.000E+00  0.000E+00
  1.390  0.000E+00  0.000E+00  0.000E+00  0.000E+00
  1.400  0.000E+00  0.000E+00  0.000E+00  0.000E+00
  1.410  0.000E+00  0.000E+00  0.000E+00  0.000E+00
  1.420  0.000E+00  0.000E+00  0.000E+00  0.000E+00
  1.430  0.000E+00  0.000E+00  0.000E+00  0.000E+00
  1.440  0.000E+00  0.000E+00  0.000E+00  0.000E+00
  1.450  0.000E+00  0.000E+00  0.000E+00  0.000E+00
  1.460  0.000E+00  0.000E+00  0.000E+00  0.000E+00
  1.470  0.000E+00  0.000E+00  0.000E+00  0.000E+00
  1.480  0.000E+00  0.000E+00  0.000E+00  0.000E+00
  1.490  0.000E+00  0.000E+00  0.000E+00  0.000E+00
  1.500  0.000E+00  0.000E+00  0.000E+00  0.000E+00
  1.510  0.000E+00  0.000E+00  0.000E+00  0.000E+00
  1.520  0.000E+00  0.000E+00  0.000E+00  0.000E+00
  1.530  0.000E+00  0.000E+00  0.000E+00  0.000E+00
  1.540  0.000E+00  0.000E+00  0.000E+00  0.000E+00
  1.550  0.000E+00  0.000E+00  0.000E+00  0.000E+00
  1.560  0.000E+00  0.000E+00  0.000E+00  0.000E+00
  1.570  0.000E+00  0.000E+00  0.000E+00  0.000E+00
  1.580  0.000E+00  0.000E+00  0.000E+00  0.000E+00
  1.590  0.000E+00  0.000E+00  0.000E+00  0.000E+00
  1.600  0.000E+00  0.000E+00  0.000E+00  0.000E+00
  1.610  0.000E+00  0.000E+00  0.000E+00  0.000E+00
  1.620  0.000E+00  0.000E+00  0.000E+00  0.000E+00
  1.630  0.000E+00  0.000E+00  0.000E+00  0.000E+00
  1.640  0.000E+00  0.000E+00  0.000E+00  0.000E+00
  1.650  0.000E+00  0.000E+00  0.000E+00  0.000E+00
  1.660  0.000E+00  0.000E+00  0.000E+00  0.000E+00
  1.670  0.000E+00  0.000E+00  0.000E+00  0.000E+00
  1.680  0.000E+00  0.000E+00  0.000E+00  0.000E+00
  1.690  0.000E+00  0.000E+00  0.000E+00  0.000E+00
  1.700  0.000E+00  0.000E+00  0.000E+00  0.000E+00
  1.710  0.000E+00  0.000E+00  0.000E+00  0.000E+00
  1.720  0.000E+00  0.000E+00  0.000E+00  0.000E+00
  1.730  0.000E+00  0.000E+00  0.000E+00  0.000E+00
  1.740  0.000E+00  0.000E+00  0.000E+00  0.000E+00
  1.750  0.000E+00  0.000E+00  0.000E+00  0.000E+00
  1.760  0.000E+00  0.000E+00  0.000E+00  0.000E+00
  1.770  0.000E+00  0.000E+00  0.000E+00  0.000E+00
  1.780  0.000E+00  0.000E+00  0.000E+00  0.000E+00
  1.790  0.000E+00  0.000E+00  0.000E+00  0.000E+00
  1.800  0.000E+00  0.000E+00  0.000E+00  0.000E+00
  1.810  0.000E+00  0.000E+00  0.000E+00  0.000E+00
  1.820  0.000E+00  0.000E+00  0.000E+00  0.000E+00
  1.830  0.000E+00  0.000E+00  0.000E+00  0.000E+00
  1.840  0.000E+00  0.000E+00  0.000E+00  0.000E+00
  1.850  0.000E+00  0.000E+00  0.000E+00  0.000E+00
  1.860  0.000E+00  0.000E+00  0.000E+00  0.000E+00
  1.870  0.000E+00  0.000E+00  0.000E+00  0.000E+00
  1.880  0.000E+00  0.000E+00  0.000E+00  0.000E+00
  1.890  0.000E+00  0.000E+00  0.000E+00  0.000E+00
  1.900  0.000E+00  0.000E+00  0.000E+00  0.000E+00
  1.910  0.000E+00  0.000E+00  0.000E+00  0.000E+00
  1.920  0.000E+00  0.000E+00  0.000E+00  0.000E+00
  1.930  0.000E+00  0.000E+00  0.000E+00  0.000E+00
  1.940  0.000E+00  0.000E+00  0.000E+00  0.000E+00
  1.950  0.000E+00  0.000E+00  0.000E+00  0.000E+00
  1.960  0.000E+00  0.000E+00  0.000E+00  0.000E+00
  1.970  0.000E+00  0.000E+00  0.000E+00  0.000E+00
  1.980  0.000E+00  0.000E+00  0.000E+00  0.000E+00
  1.990  0.000E+00  0.000E+00  0.000E+00  0.000E+00
  2.000  0.000E+00  0.000E+00  0.000E+00  0.000E+00
  2.010  0.000E+00  0.000E+00  0.000E+00  0.000E+00
  2.020  0.000E+00  0.000E+00  0.000E+00  0.000E+00
  2.030  0.000E+00  0.000E+00  0.000E+00  0.000E+00
  2.040  0.000E+00  0.000E+00  0.000E+00  0.000E+00
  2.050  0.000E+00  0.000E+00  0.000E+00  0.000E+00
  2.060  0.000E+00  0.000E+00  0.000E+00  0.000E+00
  2.070  0.000E+00  0.000E+00  0.000E+00  0.000E+00
  2.080  0.000E+00  0.000E+00  0.000E+00  0.000E+00
  2.090  0.000E+00  0.000E+00  0.000E+00  0.000E+00
  2.100  0.000E+00  0.000E+00  0.000E+00  0.000E+00
  2.110  0.000E+00  0.000E+00  0.000E+00  0.000E+00
  2.120  0.000E+00  0.000E+00  0.000E+00  0.000E+00
  2.130  0.000E+00  0.000E+00  0.000E+00  0.000E+00
  2.140  0.000E+00  0.000E+00  0.000E+00  0.000E+00
  2.150  0.000E+00  0.000E+00  0.000E+00  0.000E+00
  2.160  0.000E+00  0.000E+00  0.000E+00  0.000E+00
  2.170  0.000E+00  0.000E+00  0.000E+00  0.000E+00
  2.180  0.000E+00  0.000E+00  0.000E+00  0.000E+00
  2.190  0.000E+00  0.000E+00  0.000E+00  0.000E+00
  2.200  0.000E+00  0.000E+00  0.000E+00  0.000E+00
  2.210  0.000E+00  0.000E+00  0.000E+00  0.000E+00
  2.220  0.000E+00  0.000E+00  0.000E+00  0.000E+00
  2.230  0.000E+00  0.000E+00  0.000E+00  0.000E+00
  2.240  0.000E+00  0.000E+00  0.000E+00  0.000E+00
  2.250  0.000E+00  0.000E+00  0.000E+00  0.000E+00
  2.260  0.000E+00  0.000E+00  0.000E+00  0.000E+00
  2.270  0.000E+00  0.000E+00  0.000E+00  0.000E+00
  2.280  0.000E+00  0.000E+00  0.000E+00  0.000E+00
  2.290  0.000E+00  0.000E+00  0.000E+00  0.000E+00
  2.300  0.000E+00  0.000E+00  0.000E+00  0.000E+00
  2.310  0.000E+00  0.000E+00  0.000E+00  0.000E+00
  2.320  0.000E+00  0.000E+00  0.000E+00  0.000E+00
  2.330  0.000E+00  0.000E+00  0.000E+00  0.000E+00
  2.340  0.000E+00  0.000E+00  0.000E+00  0.000E+00
  2.350  0.000E+00  0.000E+00  0.000E+00  0.000E+00
  2.360  0.000E+00  0.000E+00  0.000E+00  0.000E+00
  2.370  0.000E+00  0.000E+00  0.000E+00  0.000E+00
  2.380  0.000E+00  0.000E+00  0.000E+00  0.000E+00
  2.390  0.000E+00  0.000E+00  0.000E+00  0.000E+00
  2.400  0.000E+00  0.000E+00  0.000E+00  0.000E+00
  2.410  0.000E+00  0.000E+00  0.000E+00  0.000E+00
  2.420  0.000E+00  0.000E+00  0.000E+00  0.000E+00
  2.430  0.000E+00  0.000E+00  0.000E+00  0.000E+00
  2.440  0.000E+00  0.000E+00  0.000E+00  0.000E+00
  2.450  0.000E+00  0.000E+00  0.000E+00  0.000E+00
  2.460  0.000E+00  0.000E+00  0.000E+00  0.000E+00
  2.470  0.000E+00  0.000E+00  0.000E+00  0.000E+00
  2.480  0.000E+00  0.000E+00  0.000E+00  0.000E+00
  2.490  0.000E+00  0.000E+00  0.000E+00  0.000E+00
  2.500  0.000E+00  0.000E+00  0.000E+00  0.000E+00
  2.510  0.000E+00  0.000E+00  0.000E+00  0.000E+00
  2.520  0.000E+00  0.000E+00  0.000E+00  0.000E+00
  2.530  0.000E+00  0.000E+00  0.000E+00  0.000E+00
  2.540  0.000E+00  0.000E+00  0.000E+00  0.000E+00
  2.550  0.000E+00  0.000E+00  0.000E+00  0.000E+00
  2.560  0.000E+00  0.000E+00  0.000E+00  0.000E+00
  2.570  0.000E+00  0.000E+00  0.000E+00  0.000E+00
  2.580  0.000E+00  0.000E+00  0.000E+00  0.000E+00
  2.590  0.000E+00  0.000E+00  0.000E+00  0.000E+00
  2.600  0.000E+00  0.000E+00  0.000E+00  0.000E+00
  2.610  0.000E+00  0.000E+00  0.000E+00  0.000E+00
  2.620  0.000E+00  0.000E+00  0.000E+00  0.000E+00
  2.630  0.000E+00  0.000E+00  0.000E+00  0.000E+00
  2.640  0.000E+00  0.000E+00  0.000E+00  0.000E+00
  2.650  0.000E+00  0.000E+00  0.000E+00  0.000E+00
  2.660  0.000E+00  0.000E+00  0.000E+00  0.000E+00
  2.670  0.000E+00  0.000E+00  0.000E+00  0.000E+00
  2.680  0.000E+00  0.000E+00  0.000E+00  0.000E+00
  2.690  0.000E+00  0.000E+00  0.000E+00  0.000E+00
  2.700  0.113E-13  0.375E-14  0.375E-14  0.375E-14
  2.710  0.236E-13  0.785E-14  0.785E-14  0.785E-14
  2.720  0.488E-13  0.163E-13  0.163E-13  0.163E-13
  2.730  0.152E-12  0.506E-13  0.506E-13  0.506E-13
  2.740  0.312E-12  0.104E-12  0.104E-12  0.104E-12
  2.750  0.633E-12  0.211E-12  0.211E-12  0.211E-12
  2.760  0.127E-11  0.424E-12  0.424E-12  0.424E-12
  2.770  0.270E-11  0.902E-12  0.902E-12  0.902E-12
  2.780  0.535E-11  0.178E-11  0.178E-11  0.178E-11
  2.790  0.105E-10  0.348E-11  0.348E-11  0.348E-11
  2.800  0.203E-10  0.678E-11  0.678E-11  0.678E-11
  2.810  0.390E-10  0.130E-10  0.130E-10  0.130E-10
  2.820  0.739E-10  0.246E-10  0.246E-10  0.246E-10
  2.830  0.139E-09  0.463E-10  0.463E-10  0.463E-10
  2.840  0.258E-09  0.861E-10  0.861E-10  0.861E-10
  2.850  0.475E-09  0.158E-09  0.158E-09  0.158E-09
  2.860  0.866E-09  0.289E-09  0.289E-09  0.289E-09
  2.870  0.156E-08  0.521E-09  0.521E-09  0.521E-09
  2.880  0.279E-08  0.929E-09  0.929E-09  0.929E-09
  2.890  0.493E-08  0.164E-08  0.164E-08  0.164E-08
  2.900  0.862E-08  0.287E-08  0.287E-08  0.287E-08
  2.910  0.149E-07  0.497E-08  0.497E-08  0.497E-08
  2.920  0.256E-07  0.853E-08  0.853E-08  0.853E-08
  2.930  0.434E-07  0.145E-07  0.145E-07  0.145E-07
  2.940  0.729E-07  0.243E-07  0.243E-07  0.243E-07
  2.950  0.121E-06  0.404E-07  0.404E-07  0.404E-07
  2.960  0.200E-06  0.666E-07  0.666E-07  0.666E-07
  2.970  0.326E-06  0.109E-06  0.109E-06  0.109E-06
  2.980  0.526E-06  0.175E-06  0.175E-06  0.175E-06
  2.990  0.840E-06  0.280E-06  0.280E-06  0.280E-06
  3.000  0.133E-05  0.443E-06  0.443E-06  0.443E-06
  3.010  0.208E-05  0.694E-06  0.694E-06  0.694E-06
  3.020  0.323E-05  0.108E-05  0.108E-05  0.108E-05
  3.030  0.496E-05  0.165E-05  0.165E-05  0.165E-05
  3.040  0.754E-05  0.251E-05  0.251E-05  0.251E-05
  3.050  0.114E-04  0.379E-05  0.379E-05  0.379E-05
  3.060  0.169E-04  0.565E-05  0.565E-05  0.565E-05
  3.070  0.250E-04  0.834E-05  0.834E-05  0.834E-05
  3.080  0.366E-04  0.122E-04  0.122E-04  0.122E-04
  3.090  0.530E-04  0.177E-04  0.177E-04  0.177E-04
  3.100  0.760E-04  0.253E-04  0.253E-04  0.253E-04
  3.110  0.108E-03  0.360E-04  0.360E-04  0.360E-04
  3.120  0.152E-03  0.506E-04  0.506E-04  0.506E-04
  3.130  0.211E-03  0.705E-04  0.705E-04  0.705E-04
  3.140  0.292E-03  0.973E-04  0.973E-04  0.973E-04
  3.150  0.399E-03  0.133E-03  0.133E-03  0.133E-03
  3.160  0.540E-03  0.180E-03  0.180E-03  0.180E-03
  3.170  0.724E-03  0.241E-03  0.241E-03  0.241E-03
  3.180  0.963E-03  0.321E-03  0.321E-03  0.321E-03
  3.190  0.127E-02  0.422E-03  0.422E-03  0.422E-03
  3.200  0.165E-02  0.551E-03  0.551E-03  0.551E-03
  3.210  0.214E-02  0.712E-03  0.712E-03  0.712E-03
  3.220  0.274E-02  0.912E-03  0.912E-03  0.912E-03
  3.230  0.348E-02  0.116E-02  0.116E-02  0.116E-02
  3.240  0.437E-02  0.146E-02  0.146E-02  0.146E-02
  3.250  0.545E-02  0.182E-02  0.182E-02  0.182E-02
  3.260  0.675E-02  0.225E-02  0.225E-02  0.225E-02
  3.270  0.827E-02  0.276E-02  0.276E-02  0.276E-02
  3.280  0.101E-01  0.335E-02  0.335E-02  0.335E-02
  3.290  0.121E-01  0.404E-02  0.404E-02  0.404E-02
  3.300  0.145E-01  0.483E-02  0.483E-02  0.483E-02
  3.310  0.172E-01  0.574E-02  0.574E-02  0.574E-02
  3.320  0.203E-01  0.675E-02  0.675E-02  0.675E-02
  3.330  0.237E-01  0.789E-02  0.789E-02  0.789E-02
  3.340  0.274E-01  0.915E-02  0.915E-02  0.915E-02
  3.350  0.316E-01  0.105E-01  0.105E-01  0.105E-01
  3.360  0.361E-01  0.120E-01  0.120E-01  0.120E-01
  3.370  0.410E-01  0.137E-01  0.137E-01  0.137E-01
  3.380  0.463E-01  0.154E-01  0.154E-01  0.154E-01
  3.390  0.518E-01  0.173E-01  0.173E-01  0.173E-01
  3.400  0.577E-01  0.192E-01  0.192E-01  0.192E-01
  3.410  0.639E-01  0.213E-01  0.213E-01  0.213E-01
  3.420  0.703E-01  0.234E-01  0.234E-01  0.234E-01
  3.430  0.769E-01  0.256E-01  0.256E-01  0.256E-01
  3.440  0.837E-01  0.279E-01  0.279E-01  0.279E-01
  3.450  0.907E-01  0.302E-01  0.302E-01  0.302E-01
  3.460  0.978E-01  0.326E-01  0.326E-01  0.326E-01
  3.470  0.105E+00  0.350E-01  0.350E-01  0.350E-01
  3.480  0.112E+00  0.373E-01  0.373E-01  0.373E-01
  3.490  0.119E+00  0.397E-01  0.397E-01  0.397E-01
  3.500  0.126E+00  0.421E-01  0.421E-01  0.421E-01
  3.510  0.133E+00  0.445E-01  0.445E-01  0.445E-01
  3.520  0.140E+00  0.468E-01  0.468E-01  0.468E-01
  3.530  0.147E+00  0.491E-01  0.491E-01  0.491E-01
  3.540  0.154E+00  0.514E-01  0.514E-01  0.514E-01
  3.550  0.161E+00  0.537E-01  0.537E-01  0.537E-01
  3.560  0.168E+00  0.559E-01  0.559E-01  0.559E-01
  3.570  0.174E+00  0.581E-01  0.581E-01  0.581E-01
  3.580  0.181E+00  0.603E-01  0.603E-01  0.603E-01
  3.590  0.188E+00  0.625E-01  0.625E-01  0.625E-01
  3.600  0.194E+00  0.647E-01  0.647E-01  0.647E-01
  3.610  0.201E+00  0.669E-01  0.669E-01  0.669E-01
  3.620  0.207E+00  0.690E-01  0.690E-01  0.690E-01
  3.630  0.213E+00  0.712E-01  0.712E-01  0.712E-01
  3.640  0.220E+00  0.733E-01  0.733E-01  0.733E-01
  3.650  0.226E+00  0.754E-01  0.754E-01  0.754E-01
  3.660  0.233E+00  0.776E-01  0.776E-01  0.776E-01
  3.670  0.239E+00  0.797E-01  0.797E-01  0.797E-01
  3.680  0.245E+00  0.818E-01  0.818E-01  0.818E-01
  3.690  0.252E+00  0.839E-01  0.839E-01  0.839E-01
  3.700  0.258E+00  0.860E-01  0.860E-01  0.860E-01
  3.710  0.264E+00  0.881E-01  0.881E-01  0.881E-01
  3.720  0.271E+00  0.902E-01  0.902E-01  0.902E-01
  3.730  0.277E+00  0.924E-01  0.924E-01  0.924E-01
  3.740  0.283E+00  0.945E-01  0.945E-01  0.945E-01
  3.750  0.290E+00  0.966E-01  0.966E-01  0.966E-01
  3.760  0.296E+00  0.988E-01  0.988E-01  0.988E-01
  3.770  0.303E+00  0.101E+00  0.101E+00  0.101E+00
  3.780  0.310E+00  0.103E+00  0.103E+00  0.103E+00
  3.790  0.317E+00  0.106E+00  0.106E+00  0.106E+00
  3.800  0.324E+00  0.108E+00  0.108E+00  0.108E+00
  3.810  0.332E+00  0.111E+00  0.111E+00  0.111E+00
  3.820  0.339E+00  0.113E+00  0.113E+00  0.113E+00
  3.830  0.347E+00  0.116E+00  0.116E+00  0.116E+00
  3.840  0.356E+00  0.119E+00  0.119E+00  0.119E+00
  3.850  0.365E+00  0.122E+00  0.122E+00  0.122E+00
  3.860  0.374E+00  0.125E+00  0.125E+00  0.125E+00
  3.870  0.383E+00  0.128E+00  0.128E+00  0.128E+00
  3.880  0.393E+00  0.131E+00  0.131E+00  0.131E+00
  3.890  0.403E+00  0.134E+00  0.134E+00  0.134E+00
  3.900  0.414E+00  0.138E+00  0.138E+00  0.138E+00
  3.910  0.426E+00  0.142E+00  0.142E+00  0.142E+00
  3.920  0.438E+00  0.146E+00  0.146E+00  0.146E+00
  3.930  0.451E+00  0.150E+00  0.150E+00  0.150E+00
  3.940  0.464E+00  0.155E+00  0.155E+00  0.155E+00
  3.950  0.479E+00  0.160E+00  0.160E+00  0.160E+00
  3.960  0.495E+00  0.165E+00  0.165E+00  0.165E+00
  3.970  0.513E+00  0.171E+00  0.171E+00  0.171E+00
  3.980  0.532E+00  0.177E+00  0.177E+00  0.177E+00
  3.990  0.554E+00  0.185E+00  0.185E+00  0.185E+00
  4.000  0.577E+00  0.192E+00  0.192E+00  0.192E+00
  4.010  0.603E+00  0.201E+00  0.201E+00  0.201E+00
  4.020  0.631E+00  0.210E+00  0.210E+00  0.210E+00
  4.030  0.662E+00  0.221E+00  0.221E+00  0.221E+00
  4.040  0.696E+00  0.232E+00  0.232E+00  0.232E+00
  4.050  0.733E+00  0.244E+00  0.244E+00  0.244E+00
  4.060  0.772E+00  0.257E+00  0.257E+00  0.257E+00
  4.070  0.814E+00  0.271E+00  0.271E+00  0.271E+00
  4.080  0.859E+00  0.286E+00  0.286E+00  0.286E+00
  4.090  0.907E+00  0.302E+00  0.302E+00  0.302E+00
  4.100  0.956E+00  0.319E+00  0.319E+00  0.319E+00
  4.110  0.101E+01  0.335E+00  0.335E+00  0.335E+00
  4.120  0.106E+01  0.353E+00  0.353E+00  0.353E+00
  4.130  0.111E+01  0.370E+00  0.370E+00  0.370E+00
  4.140  0.116E+01  0.387E+00  0.387E+00  0.387E+00
  4.150  0.121E+01  0.403E+00  0.403E+00  0.403E+00
  4.160  0.126E+01  0.419E+00  0.419E+00  0.419E+00
  4.170  0.130E+01  0.434E+00  0.434E+00  0.434E+00
  4.180  0.134E+01  0.448E+00  0.448E+00  0.448E+00
  4.190  0.138E+01  0.460E+00  0.460E+00  0.460E+00
  4.200  0.141E+01  0.470E+00  0.470E+00  0.470E+00
  4.210  0.144E+01  0.479E+00  0.479E+00  0.479E+00
  4.220  0.145E+01  0.485E+00  0.485E+00  0.485E+00
  4.230  0.147E+01  0.488E+00  0.488E+00  0.488E+00
  4.240  0.147E+01  0.490E+00  0.490E+00  0.490E+00
  4.250  0.146E+01  0.488E+00  0.488E+00  0.488E+00
  4.260  0.145E+01  0.484E+00  0.484E+00  0.484E+00
  4.270  0.143E+01  0.478E+00  0.478E+00  0.478E+00
  4.280  0.141E+01  0.470E+00  0.470E+00  0.470E+00
  4.290  0.138E+01  0.459E+00  0.459E+00  0.459E+00
  4.300  0.134E+01  0.447E+00  0.447E+00  0.447E+00
  4.310  0.130E+01  0.433E+00  0.433E+00  0.433E+00
  4.320  0.125E+01  0.417E+00  0.417E+00  0.417E+00
  4.330  0.120E+01  0.401E+00  0.401E+00  0.401E+00
  4.340  0.115E+01  0.384E+00  0.384E+00  0.384E+00
  4.350  0.110E+01  0.366E+00  0.366E+00  0.366E+00
  4.360  0.104E+01  0.348E+00  0.348E+00  0.348E+00
  4.370  0.992E+00  0.331E+00  0.331E+00  0.331E+00
  4.380  0.940E+00  0.313E+00  0.313E+00  0.313E+00
  4.390  0.889E+00  0.296E+00  0.296E+00  0.296E+00
  4.400  0.841E+00  0.280E+00  0.280E+00  0.280E+00
  4.410  0.795E+00  0.265E+00  0.265E+00  0.265E+00
  4.420  0.752E+00  0.251E+00  0.251E+00  0.251E+00
  4.430  0.712E+00  0.237E+00  0.237E+00  0.237E+00
  4.440  0.675E+00  0.225E+00  0.225E+00  0.225E+00
  4.450  0.641E+00  0.214E+00  0.214E+00  0.214E+00
  4.460  0.610E+00  0.203E+00  0.203E+00  0.203E+00
  4.470  0.582E+00  0.194E+00  0.194E+00  0.194E+00
  4.480  0.556E+00  0.185E+00  0.185E+00  0.185E+00
  4.490  0.533E+00  0.178E+00  0.178E+00  0.178E+00
  4.500  0.512E+00  0.171E+00  0.171E+00  0.171E+00
  4.510  0.493E+00  0.164E+00  0.164E+00  0.164E+00
  4.520  0.476E+00  0.159E+00  0.159E+00  0.159E+00
  4.530  0.460E+00  0.153E+00  0.153E+00  0.153E+00
  4.540  0.446E+00  0.149E+00  0.149E+00  0.149E+00
  4.550  0.432E+00  0.144E+00  0.144E+00  0.144E+00
  4.560  0.420E+00  0.140E+00  0.140E+00  0.140E+00
  4.570  0.409E+00  0.136E+00  0.136E+00  0.136E+00
  4.580  0.399E+00  0.133E+00  0.133E+00  0.133E+00
  4.590  0.390E+00  0.130E+00  0.130E+00  0.130E+00
  4.600  0.381E+00  0.127E+00  0.127E+00  0.127E+00
  4.610  0.373E+00  0.124E+00  0.124E+00  0.124E+00
  4.620  0.366E+00  0.122E+00  0.122E+00  0.122E+00
  4.630  0.359E+00  0.120E+00  0.120E+00  0.120E+00
  4.640  0.353E+00  0.118E+00  0.118E+00  0.118E+00
  4.650  0.347E+00  0.116E+00  0.116E+00  0.116E+00
  4.660  0.341E+00  0.114E+00  0.114E+00  0.114E+00
  4.670  0.336E+00  0.112E+00  0.112E+00  0.112E+00
  4.680  0.332E+00  0.111E+00  0.111E+00  0.111E+00
  4.690  0.327E+00  0.109E+00  0.109E+00  0.109E+00
  4.700  0.323E+00  0.108E+00  0.108E+00  0.108E+00
  4.710  0.318E+00  0.106E+00  0.106E+00  0.106E+00
  4.720  0.314E+00  0.105E+00  0.105E+00  0.105E+00
  4.730  0.309E+00  0.103E+00  0.103E+00  0.103E+00
  4.740  0.305E+00  0.102E+00  0.102E+00  0.102E+00
  4.750  0.300E+00  0.100E+00  0.100E+00  0.100E+00
  4.760  0.295E+00  0.984E-01  0.984E-01  0.984E-01
  4.770  0.290E+00  0.967E-01  0.967E-01  0.967E-01
  4.780  0.285E+00  0.950E-01  0.950E-01  0.950E-01
  4.790  0.280E+00  0.933E-01  0.933E-01  0.933E-01
  4.800  0.275E+00  0.916E-01  0.916E-01  0.916E-01
  4.810  0.270E+00  0.899E-01  0.899E-01  0.899E-01
  4.820  0.265E+00  0.884E-01  0.884E-01  0.884E-01
  4.830  0.261E+00  0.868E-01  0.868E-01  0.868E-01
  4.840  0.256E+00  0.854E-01  0.854E-01  0.854E-01
  4.850  0.252E+00  0.841E-01  0.841E-01  0.841E-01
  4.860  0.249E+00  0.830E-01  0.830E-01  0.830E-01
  4.870  0.246E+00  0.819E-01  0.819E-01  0.819E-01
  4.880  0.243E+00  0.810E-01  0.810E-01  0.810E-01
  4.890  0.241E+00  0.802E-01  0.802E-01  0.802E-01
  4.900  0.239E+00  0.796E-01  0.796E-01  0.796E-01
  4.910  0.237E+00  0.790E-01  0.790E-01  0.790E-01
  4.920  0.235E+00  0.785E-01  0.785E-01  0.785E-01
  4.930  0.234E+00  0.780E-01  0.780E-01  0.780E-01
  4.940  0.233E+00  0.776E-01  0.776E-01  0.776E-01
  4.950  0.232E+00  0.772E-01  0.772E-01  0.772E-01
  4.960  0.230E+00  0.767E-01  0.767E-01  0.767E-01
  4.970  0.229E+00  0.763E-01  0.763E-01  0.763E-01
  4.980  0.227E+00  0.757E-01  0.757E-01  0.757E-01
  4.990  0.225E+00  0.752E-01  0.752E-01  0.752E-01
  5.000  0.223E+00  0.745E-01  0.745E-01  0.745E-01
  5.010  0.221E+00  0.738E-01  0.738E-01  0.738E-01
  5.020  0.219E+00  0.729E-01  0.729E-01  0.729E-01
  5.030  0.216E+00  0.720E-01  0.720E-01  0.720E-01
  5.040  0.213E+00  0.711E-01  0.711E-01  0.711E-01
  5.050  0.210E+00  0.700E-01  0.700E-01  0.700E-01
  5.060  0.207E+00  0.690E-01  0.690E-01  0.690E-01
  5.070  0.203E+00  0.678E-01  0.678E-01  0.678E-01
  5.080  0.200E+00  0.667E-01  0.667E-01  0.667E-01
  5.090  0.196E+00  0.655E-01  0.655E-01  0.655E-01
  5.100  0.193E+00  0.643E-01  0.643E-01  0.643E-01
  5.110  0.189E+00  0.631E-01  0.631E-01  0.631E-01
  5.120  0.186E+00  0.620E-01  0.620E-01  0.620E-01
  5.130  0.183E+00  0.609E-01  0.609E-01  0.609E-01
  5.140  0.180E+00  0.599E-01  0.599E-01  0.599E-01
  5.150  0.177E+00  0.589E-01  0.589E-01  0.589E-01
  5.160  0.174E+00  0.581E-01  0.581E-01  0.581E-01
  5.170  0.172E+00  0.574E-01  0.574E-01  0.574E-01
  5.180  0.170E+00  0.568E-01  0.568E-01  0.568E-01
  5.190  0.169E+00  0.563E-01  0.563E-01  0.563E-01
  5.200  0.168E+00  0.560E-01  0.560E-01  0.560E-01
  5.210  0.167E+00  0.557E-01  0.557E-01  0.557E-01
  5.220  0.167E+00  0.556E-01  0.556E-01  0.556E-01
  5.230  0.167E+00  0.555E-01  0.555E-01  0.555E-01
  5.240  0.167E+00  0.555E-01  0.555E-01  0.555E-01
  5.250  0.167E+00  0.556E-01  0.556E-01  0.556E-01
  5.260  0.167E+00  0.557E-01  0.557E-01  0.557E-01
  5.270  0.167E+00  0.558E-01  0.558E-01  0.558E-01
  5.280  0.168E+00  0.559E-01  0.559E-01  0.559E-01
  5.290  0.168E+00  0.559E-01  0.559E-01  0.559E-01
  5.300  0.168E+00  0.559E-01  0.559E-01  0.559E-01
  5.310  0.167E+00  0.557E-01  0.557E-01  0.557E-01
  5.320  0.167E+00  0.555E-01  0.555E-01  0.555E-01
  5.330  0.166E+00  0.552E-01  0.552E-01  0.552E-01
  5.340  0.164E+00  0.547E-01  0.547E-01  0.547E-01
  5.350  0.163E+00  0.542E-01  0.542E-01  0.542E-01
  5.360  0.161E+00  0.535E-01  0.535E-01  0.535E-01
  5.370  0.158E+00  0.528E-01  0.528E-01  0.528E-01
  5.380  0.156E+00  0.519E-01  0.519E-01  0.519E-01
  5.390  0.153E+00  0.510E-01  0.510E-01  0.510E-01
  5.400  0.150E+00  0.501E-01  0.501E-01  0.501E-01
  5.410  0.147E+00  0.491E-01  0.491E-01  0.491E-01
  5.420  0.144E+00  0.480E-01  0.480E-01  0.480E-01
  5.430  0.141E+00  0.470E-01  0.470E-01  0.470E-01
  5.440  0.138E+00  0.460E-01  0.460E-01  0.460E-01
  5.450  0.135E+00  0.451E-01  0.451E-01  0.451E-01
  5.460  0.133E+00  0.442E-01  0.442E-01  0.442E-01
  5.470  0.130E+00  0.434E-01  0.434E-01  0.434E-01
  5.480  0.128E+00  0.427E-01  0.427E-01  0.427E-01
  5.490  0.126E+00  0.421E-01  0.421E-01  0.421E-01
  5.500  0.125E+00  0.417E-01  0.417E-01  0.417E-01
  5.510  0.124E+00  0.413E-01  0.413E-01  0.413E-01
  5.520  0.123E+00  0.411E-01  0.411E-01  0.411E-01
  5.530  0.123E+00  0.411E-01  0.411E-01  0.411E-01
  5.540  0.124E+00  0.412E-01  0.412E-01  0.412E-01
  5.550  0.125E+00  0.415E-01  0.415E-01  0.415E-01
  5.560  0.126E+00  0.420E-01  0.420E-01  0.420E-01
  5.570  0.128E+00  0.427E-01  0.427E-01  0.427E-01
  5.580  0.131E+00  0.435E-01  0.435E-01  0.435E-01
  5.590  0.134E+00  0.446E-01  0.446E-01  0.446E-01
  5.600  0.138E+00  0.458E-01  0.458E-01  0.458E-01
  5.610  0.142E+00  0.473E-01  0.473E-01  0.473E-01
  5.620  0.147E+00  0.490E-01  0.490E-01  0.490E-01
  5.630  0.153E+00  0.508E-01  0.508E-01  0.508E-01
  5.640  0.159E+00  0.529E-01  0.529E-01  0.529E-01
  5.650  0.166E+00  0.552E-01  0.552E-01  0.552E-01
  5.660  0.173E+00  0.577E-01  0.577E-01  0.577E-01
  5.670  0.181E+00  0.605E-01  0.605E-01  0.605E-01
  5.680  0.190E+00  0.634E-01  0.634E-01  0.634E-01
  5.690  0.200E+00  0.666E-01  0.666E-01  0.666E-01
  5.700  0.210E+00  0.700E-01  0.700E-01  0.700E-01
  5.710  0.221E+00  0.736E-01  0.736E-01  0.736E-01
  5.720  0.232E+00  0.774E-01  0.774E-01  0.774E-01
  5.730  0.244E+00  0.814E-01  0.814E-01  0.814E-01
  5.740  0.257E+00  0.856E-01  0.856E-01  0.856E-01
  5.750  0.270E+00  0.900E-01  0.900E-01  0.900E-01
  5.760  0.284E+00  0.945E-01  0.945E-01  0.945E-01
  5.770  0.298E+00  0.993E-01  0.993E-01  0.993E-01
  5.780  0.313E+00  0.104E+00  0.104E+00  0.104E+00
  5.790  0.328E+00  0.109E+00  0.109E+00  0.109E+00
  5.800  0.344E+00  0.115E+00  0.115E+00  0.115E+00
  5.810  0.360E+00  0.120E+00  0.120E+00  0.120E+00
  5.820  0.376E+00  0.125E+00  0.125E+00  0.125E+00
  5.830  0.393E+00  0.131E+00  0.131E+00  0.131E+00
  5.840  0.410E+00  0.137E+00  0.137E+00  0.137E+00
  5.850  0.427E+00  0.142E+00  0.142E+00  0.142E+00
  5.860  0.445E+00  0.148E+00  0.148E+00  0.148E+00
  5.870  0.463E+00  0.154E+00  0.154E+00  0.154E+00
  5.880  0.481E+00  0.160E+00  0.160E+00  0.160E+00
  5.890  0.498E+00  0.166E+00  0.166E+00  0.166E+00
  5.900  0.516E+00  0.172E+00  0.172E+00  0.172E+00
  5.910  0.534E+00  0.178E+00  0.178E+00  0.178E+00
  5.920  0.552E+00  0.184E+00  0.184E+00  0.184E+00
  5.930  0.569E+00  0.190E+00  0.190E+00  0.190E+00
  5.940  0.586E+00  0.195E+00  0.195E+00  0.195E+00
  5.950  0.603E+00  0.201E+00  0.201E+00  0.201E+00
  5.960  0.619E+00  0.206E+00  0.206E+00  0.206E+00
  5.970  0.634E+00  0.211E+00  0.211E+00  0.211E+00
  5.980  0.649E+00  0.216E+00  0.216E+00  0.216E+00
  5.990  0.663E+00  0.221E+00  0.221E+00  0.221E+00
  6.000  0.675E+00  0.225E+00  0.225E+00  0.225E+00
  6.010  0.687E+00  0.229E+00  0.229E+00  0.229E+00
  6.020  0.698E+00  0.233E+00  0.233E+00  0.233E+00
  6.030  0.707E+00  0.236E+00  0.236E+00  0.236E+00
  6.040  0.716E+00  0.239E+00  0.239E+00  0.239E+00
  6.050  0.722E+00  0.241E+00  0.241E+00  0.241E+00
  6.060  0.728E+00  0.243E+00  0.243E+00  0.243E+00
  6.070  0.733E+00  0.244E+00  0.244E+00  0.244E+00
  6.080  0.736E+00  0.245E+00  0.245E+00  0.245E+00
  6.090  0.739E+00  0.246E+00  0.246E+00  0.246E+00
  6.100  0.740E+00  0.247E+00  0.247E+00  0.247E+00
  6.110  0.741E+00  0.247E+00  0.247E+00  0.247E+00
  6.120  0.740E+00  0.247E+00  0.247E+00  0.247E+00
  6.130  0.739E+00  0.246E+00  0.246E+00  0.246E+00
  6.140  0.738E+00  0.246E+00  0.246E+00  0.246E+00
  6.150  0.736E+00  0.245E+00  0.245E+00  0.245E+00
  6.160  0.734E+00  0.245E+00  0.245E+00  0.245E+00
  6.170  0.731E+00  0.244E+00  0.244E+00  0.244E+00
  6.180  0.728E+00  0.243E+00  0.243E+00  0.243E+00
  6.190  0.725E+00  0.242E+00  0.242E+00  0.242E+00
  6.200  0.722E+00  0.241E+00  0.241E+00  0.241E+00
  6.210  0.719E+00  0.240E+00  0.240E+00  0.240E+00
  6.220  0.716E+00  0.239E+00  0.239E+00  0.239E+00
  6.230  0.712E+00  0.237E+00  0.237E+00  0.237E+00
  6.240  0.709E+00  0.236E+00  0.236E+00  0.236E+00
  6.250  0.706E+00  0.235E+00  0.235E+00  0.235E+00
  6.260  0.704E+00  0.235E+00  0.235E+00  0.235E+00
  6.270  0.702E+00  0.234E+00  0.234E+00  0.234E+00
  6.280  0.700E+00  0.233E+00  0.233E+00  0.233E+00
  6.290  0.699E+00  0.233E+00  0.233E+00  0.233E+00
  6.300  0.699E+00  0.233E+00  0.233E+00  0.233E+00
  6.310  0.700E+00  0.233E+00  0.233E+00  0.233E+00
  6.320  0.701E+00  0.234E+00  0.234E+00  0.234E+00
  6.330  0.703E+00  0.234E+00  0.234E+00  0.234E+00
  6.340  0.706E+00  0.235E+00  0.235E+00  0.235E+00
  6.350  0.709E+00  0.236E+00  0.236E+00  0.236E+00
  6.360  0.714E+00  0.238E+00  0.238E+00  0.238E+00
  6.370  0.718E+00  0.239E+00  0.239E+00  0.239E+00
  6.380  0.723E+00  0.241E+00  0.241E+00  0.241E+00
  6.390  0.729E+00  0.243E+00  0.243E+00  0.243E+00
  6.400  0.735E+00  0.245E+00  0.245E+00  0.245E+00
  6.410  0.740E+00  0.247E+00  0.247E+00  0.247E+00
  6.420  0.746E+00  0.249E+00  0.249E+00  0.249E+00
  6.430  0.752E+00  0.251E+00  0.251E+00  0.251E+00
  6.440  0.757E+00  0.252E+00  0.252E+00  0.252E+00
  6.450  0.763E+00  0.254E+00  0.254E+00  0.254E+00
  6.460  0.768E+00  0.256E+00  0.256E+00  0.256E+00
  6.470  0.773E+00  0.258E+00  0.258E+00  0.258E+00
  6.480  0.777E+00  0.259E+00  0.259E+00  0.259E+00
  6.490  0.782E+00  0.261E+00  0.261E+00  0.261E+00
  6.500  0.786E+00  0.262E+00  0.262E+00  0.262E+00
  6.510  0.791E+00  0.264E+00  0.264E+00  0.264E+00
  6.520  0.796E+00  0.265E+00  0.265E+00  0.265E+00
  6.530  0.800E+00  0.267E+00  0.267E+00  0.267E+00
  6.540  0.805E+00  0.268E+00  0.268E+00  0.268E+00
  6.550  0.809E+00  0.270E+00  0.270E+00  0.270E+00
  6.560  0.814E+00  0.271E+00  0.271E+00  0.271E+00
  6.570  0.819E+00  0.273E+00  0.273E+00  0.273E+00
  6.580  0.824E+00  0.275E+00  0.275E+00  0.275E+00
  6.590  0.829E+00  0.276E+00  0.276E+00  0.276E+00
  6.600  0.834E+00  0.278E+00  0.278E+00  0.278E+00
  6.610  0.839E+00  0.280E+00  0.280E+00  0.280E+00
  6.620  0.845E+00  0.282E+00  0.282E+00  0.282E+00
  6.630  0.850E+00  0.283E+00  0.283E+00  0.283E+00
  6.640  0.857E+00  0.286E+00  0.286E+00  0.286E+00
  6.650  0.863E+00  0.288E+00  0.288E+00  0.288E+00
  6.660  0.871E+00  0.290E+00  0.290E+00  0.290E+00
  6.670  0.879E+00  0.293E+00  0.293E+00  0.293E+00
  6.680  0.888E+00  0.296E+00  0.296E+00  0.296E+00
  6.690  0.898E+00  0.299E+00  0.299E+00  0.299E+00
  6.700  0.909E+00  0.303E+00  0.303E+00  0.303E+00
  6.710  0.921E+00  0.307E+00  0.307E+00  0.307E+00
  6.720  0.934E+00  0.311E+00  0.311E+00  0.311E+00
  6.730  0.949E+00  0.316E+00  0.316E+00  0.316E+00
  6.740  0.964E+00  0.321E+00  0.321E+00  0.321E+00
  6.750  0.980E+00  0.327E+00  0.327E+00  0.327E+00
  6.760  0.997E+00  0.332E+00  0.332E+00  0.332E+00
  6.770  0.101E+01  0.338E+00  0.338E+00  0.338E+00
  6.780  0.103E+01  0.344E+00  0.344E+00  0.344E+00
  6.790  0.105E+01  0.350E+00  0.350E+00  0.350E+00
  6.800  0.107E+01  0.356E+00  0.356E+00  0.356E+00
  6.810  0.108E+01  0.361E+00  0.361E+00  0.361E+00
  6.820  0.110E+01  0.367E+00  0.367E+00  0.367E+00
  6.830  0.112E+01  0.372E+00  0.372E+00  0.372E+00
  6.840  0.113E+01  0.377E+00  0.377E+00  0.377E+00
  6.850  0.114E+01  0.381E+00  0.381E+00  0.381E+00
  6.860  0.115E+01  0.385E+00  0.385E+00  0.385E+00
  6.870  0.116E+01  0.388E+00  0.388E+00  0.388E+00
  6.880  0.117E+01  0.391E+00  0.391E+00  0.391E+00
  6.890  0.118E+01  0.393E+00  0.393E+00  0.393E+00
  6.900  0.118E+01  0.395E+00  0.395E+00  0.395E+00
  6.910  0.119E+01  0.396E+00  0.396E+00  0.396E+00
  6.920  0.119E+01  0.397E+00  0.397E+00  0.397E+00
  6.930  0.119E+01  0.398E+00  0.398E+00  0.398E+00
  6.940  0.120E+01  0.399E+00  0.399E+00  0.399E+00
  6.950  0.120E+01  0.399E+00  0.399E+00  0.399E+00
  6.960  0.120E+01  0.399E+00  0.399E+00  0.399E+00
  6.970  0.120E+01  0.400E+00  0.400E+00  0.400E+00
  6.980  0.120E+01  0.400E+00  0.400E+00  0.400E+00
  6.990  0.120E+01  0.401E+00  0.401E+00  0.401E+00
  7.000  0.121E+01  0.402E+00  0.402E+00  0.402E+00
  7.010  0.121E+01  0.403E+00  0.403E+00  0.403E+00
  7.020  0.121E+01  0.404E+00  0.404E+00  0.404E+00
  7.030  0.122E+01  0.405E+00  0.405E+00  0.405E+00
  7.040  0.122E+01  0.407E+00  0.407E+00  0.407E+00
  7.050  0.123E+01  0.409E+00  0.409E+00  0.409E+00
  7.060  0.123E+01  0.411E+00  0.411E+00  0.411E+00
  7.070  0.124E+01  0.412E+00  0.412E+00  0.412E+00
  7.080  0.124E+01  0.414E+00  0.414E+00  0.414E+00
  7.090  0.125E+01  0.416E+00  0.416E+00  0.416E+00
  7.100  0.125E+01  0.418E+00  0.418E+00  0.418E+00
  7.110  0.126E+01  0.420E+00  0.420E+00  0.420E+00
  7.120  0.126E+01  0.421E+00  0.421E+00  0.421E+00
  7.130  0.127E+01  0.423E+00  0.423E+00  0.423E+00
  7.140  0.127E+01  0.424E+00  0.424E+00  0.424E+00
  7.150  0.128E+01  0.425E+00  0.425E+00  0.425E+00
  7.160  0.128E+01  0.426E+00  0.426E+00  0.426E+00
  7.170  0.128E+01  0.427E+00  0.427E+00  0.427E+00
  7.180  0.128E+01  0.428E+00  0.428E+00  0.428E+00
  7.190  0.128E+01  0.428E+00  0.428E+00  0.428E+00
  7.200  0.129E+01  0.429E+00  0.429E+00  0.429E+00
  7.210  0.129E+01  0.429E+00  0.429E+00  0.429E+00
  7.220  0.129E+01  0.429E+00  0.429E+00  0.429E+00
  7.230  0.129E+01  0.429E+00  0.429E+00  0.429E+00
  7.240  0.129E+01  0.429E+00  0.429E+00  0.429E+00
  7.250  0.129E+01  0.429E+00  0.429E+00  0.429E+00
  7.260  0.129E+01  0.428E+00  0.428E+00  0.428E+00
  7.270  0.128E+01  0.428E+00  0.428E+00  0.428E+00
  7.280  0.128E+01  0.427E+00  0.427E+00  0.427E+00
  7.290  0.128E+01  0.426E+00  0.426E+00  0.426E+00
  7.300  0.128E+01  0.425E+00  0.425E+00  0.425E+00
  7.310  0.127E+01  0.425E+00  0.425E+00  0.425E+00
  7.320  0.127E+01  0.424E+00  0.424E+00  0.424E+00
  7.330  0.127E+01  0.423E+00  0.423E+00  0.423E+00
  7.340  0.127E+01  0.422E+00  0.422E+00  0.422E+00
  7.350  0.127E+01  0.422E+00  0.422E+00  0.422E+00
  7.360  0.127E+01  0.422E+00  0.422E+00  0.422E+00
  7.370  0.127E+01  0.422E+00  0.422E+00  0.422E+00
  7.380  0.127E+01  0.423E+00  0.423E+00  0.423E+00
  7.390  0.127E+01  0.424E+00  0.424E+00  0.424E+00
  7.400  0.128E+01  0.426E+00  0.426E+00  0.426E+00
  7.410  0.128E+01  0.428E+00  0.428E+00  0.428E+00
  7.420  0.129E+01  0.430E+00  0.430E+00  0.430E+00
  7.430  0.130E+01  0.432E+00  0.432E+00  0.432E+00
  7.440  0.131E+01  0.435E+00  0.435E+00  0.435E+00
  7.450  0.131E+01  0.438E+00  0.438E+00  0.438E+00
  7.460  0.132E+01  0.441E+00  0.441E+00  0.441E+00
  7.470  0.133E+01  0.444E+00  0.444E+00  0.444E+00
  7.480  0.134E+01  0.446E+00  0.446E+00  0.446E+00
  7.490  0.135E+01  0.448E+00  0.448E+00  0.448E+00
  7.500  0.135E+01  0.450E+00  0.450E+00  0.450E+00
  7.510  0.136E+01  0.452E+00  0.452E+00  0.452E+00
  7.520  0.136E+01  0.453E+00  0.453E+00  0.453E+00
  7.530  0.136E+01  0.454E+00  0.454E+00  0.454E+00
  7.540  0.136E+01  0.454E+00  0.454E+00  0.454E+00
  7.550  0.136E+01  0.454E+00  0.454E+00  0.454E+00
  7.560  0.136E+01  0.453E+00  0.453E+00  0.453E+00
  7.570  0.136E+01  0.453E+00  0.453E+00  0.453E+00
  7.580  0.136E+01  0.452E+00  0.452E+00  0.452E+00
  7.590  0.135E+01  0.451E+00  0.451E+00  0.451E+00
  7.600  0.135E+01  0.450E+00  0.450E+00  0.450E+00
  7.610  0.135E+01  0.449E+00  0.449E+00  0.449E+00
  7.620  0.134E+01  0.448E+00  0.448E+00  0.448E+00
  7.630  0.134E+01  0.447E+00  0.447E+00  0.447E+00
  7.640  0.134E+01  0.446E+00  0.446E+00  0.446E+00
  7.650  0.134E+01  0.446E+00  0.446E+00  0.446E+00
  7.660  0.134E+01  0.446E+00  0.446E+00  0.446E+00
  7.670  0.134E+01  0.447E+00  0.447E+00  0.447E+00
  7.680  0.134E+01  0.447E+00  0.447E+00  0.447E+00
  7.690  0.135E+01  0.448E+00  0.448E+00  0.448E+00
  7.700  0.135E+01  0.450E+00  0.450E+00  0.450E+00
  7.710  0.135E+01  0.451E+00  0.451E+00  0.451E+00
  7.720  0.136E+01  0.453E+00  0.453E+00  0.453E+00
  7.730  0.137E+01  0.455E+00  0.455E+00  0.455E+00
  7.740  0.137E+01  0.457E+00  0.457E+00  0.457E+00
  7.750  0.138E+01  0.459E+00  0.459E+00  0.459E+00
  7.760  0.139E+01  0.462E+00  0.462E+00  0.462E+00
  7.770  0.139E+01  0.464E+00  0.464E+00  0.464E+00
  7.780  0.140E+01  0.466E+00  0.466E+00  0.466E+00
  7.790  0.140E+01  0.468E+00  0.468E+00  0.468E+00
  7.800  0.141E+01  0.470E+00  0.470E+00  0.470E+00
  7.810  0.142E+01  0.472E+00  0.472E+00  0.472E+00
  7.820  0.142E+01  0.474E+00  0.474E+00  0.474E+00
  7.830  0.142E+01  0.475E+00  0.475E+00  0.475E+00
  7.840  0.143E+01  0.476E+00  0.476E+00  0.476E+00
  7.850  0.143E+01  0.477E+00  0.477E+00  0.477E+00
  7.860  0.143E+01  0.478E+00  0.478E+00  0.478E+00
  7.870  0.144E+01  0.479E+00  0.479E+00  0.479E+00
  7.880  0.144E+01  0.479E+00  0.479E+00  0.479E+00
  7.890  0.144E+01  0.480E+00  0.480E+00  0.480E+00
  7.900  0.144E+01  0.480E+00  0.480E+00  0.480E+00
  7.910  0.144E+01  0.480E+00  0.480E+00  0.480E+00
  7.920  0.144E+01  0.481E+00  0.481E+00  0.481E+00
  7.930  0.144E+01  0.481E+00  0.481E+00  0.481E+00
  7.940  0.144E+01  0.481E+00  0.481E+00  0.481E+00
  7.950  0.144E+01  0.481E+00  0.481E+00  0.481E+00
  7.960  0.145E+01  0.482E+00  0.482E+00  0.482E+00
  7.970  0.145E+01  0.482E+00  0.482E+00  0.482E+00
  7.980  0.145E+01  0.483E+00  0.483E+00  0.483E+00
  7.990  0.145E+01  0.484E+00  0.484E+00  0.484E+00
  8.000  0.145E+01  0.485E+00  0.485E+00  0.485E+00
  8.010  0.146E+01  0.486E+00  0.486E+00  0.486E+00
  8.020  0.146E+01  0.487E+00  0.487E+00  0.487E+00
  8.030  0.146E+01  0.488E+00  0.488E+00  0.488E+00
  8.040  0.147E+01  0.489E+00  0.489E+00  0.489E+00
  8.050  0.147E+01  0.490E+00  0.490E+00  0.490E+00
  8.060  0.147E+01  0.490E+00  0.490E+00  0.490E+00
  8.070  0.147E+01  0.491E+00  0.491E+00  0.491E+00
  8.080  0.147E+01  0.491E+00  0.491E+00  0.491E+00
  8.090  0.147E+01  0.491E+00  0.491E+00  0.491E+00
  8.100  0.147E+01  0.491E+00  0.491E+00  0.491E+00
  8.110  0.147E+01  0.490E+00  0.490E+00  0.490E+00
  8.120  0.147E+01  0.489E+00  0.489E+00  0.489E+00
  8.130  0.146E+01  0.487E+00  0.487E+00  0.487E+00
  8.140  0.145E+01  0.485E+00  0.485E+00  0.485E+00
  8.150  0.145E+01  0.482E+00  0.482E+00  0.482E+00
  8.160  0.144E+01  0.478E+00  0.478E+00  0.478E+00
  8.170  0.142E+01  0.474E+00  0.474E+00  0.474E+00
  8.180  0.141E+01  0.470E+00  0.470E+00  0.470E+00
  8.190  0.139E+01  0.465E+00  0.465E+00  0.465E+00
  8.200  0.138E+01  0.459E+00  0.459E+00  0.459E+00
  8.210  0.136E+01  0.453E+00  0.453E+00  0.453E+00
  8.220  0.134E+01  0.447E+00  0.447E+00  0.447E+00
  8.230  0.132E+01  0.441E+00  0.441E+00  0.441E+00
  8.240  0.130E+01  0.434E+00  0.434E+00  0.434E+00
  8.250  0.128E+01  0.427E+00  0.427E+00  0.427E+00
  8.260  0.126E+01  0.420E+00  0.420E+00  0.420E+00
  8.270  0.124E+01  0.413E+00  0.413E+00  0.413E+00
  8.280  0.122E+01  0.405E+00  0.405E+00  0.405E+00
  8.290  0.120E+01  0.398E+00  0.398E+00  0.398E+00
  8.300  0.117E+01  0.391E+00  0.391E+00  0.391E+00
  8.310  0.115E+01  0.384E+00  0.384E+00  0.384E+00
  8.320  0.113E+01  0.377E+00  0.377E+00  0.377E+00
  8.330  0.111E+01  0.371E+00  0.371E+00  0.371E+00
  8.340  0.109E+01  0.364E+00  0.364E+00  0.364E+00
  8.350  0.107E+01  0.357E+00  0.357E+00  0.357E+00
  8.360  0.105E+01  0.351E+00  0.351E+00  0.351E+00
  8.370  0.103E+01  0.345E+00  0.345E+00  0.345E+00
  8.380  0.102E+01  0.339E+00  0.339E+00  0.339E+00
  8.390  0.998E+00  0.333E+00  0.333E+00  0.333E+00
  8.400  0.980E+00  0.327E+00  0.327E+00  0.327E+00
  8.410  0.963E+00  0.321E+00  0.321E+00  0.321E+00
  8.420  0.946E+00  0.315E+00  0.315E+00  0.315E+00
  8.430  0.929E+00  0.310E+00  0.310E+00  0.310E+00
  8.440  0.913E+00  0.304E+00  0.304E+00  0.304E+00
  8.450  0.898E+00  0.299E+00  0.299E+00  0.299E+00
  8.460  0.882E+00  0.294E+00  0.294E+00  0.294E+00
  8.470  0.868E+00  0.289E+00  0.289E+00  0.289E+00
  8.480  0.853E+00  0.284E+00  0.284E+00  0.284E+00
  8.490  0.839E+00  0.280E+00  0.280E+00  0.280E+00
  8.500  0.826E+00  0.275E+00  0.275E+00  0.275E+00
  8.510  0.813E+00  0.271E+00  0.271E+00  0.271E+00
  8.520  0.800E+00  0.267E+00  0.267E+00  0.267E+00
  8.530  0.787E+00  0.262E+00  0.262E+00  0.262E+00
  8.540  0.775E+00  0.258E+00  0.258E+00  0.258E+00
  8.550  0.763E+00  0.254E+00  0.254E+00  0.254E+00
  8.560  0.751E+00  0.250E+00  0.250E+00  0.250E+00
  8.570  0.740E+00  0.247E+00  0.247E+00  0.247E+00
  8.580  0.728E+00  0.243E+00  0.243E+00  0.243E+00
  8.590  0.716E+00  0.239E+00  0.239E+00  0.239E+00
  8.600  0.705E+00  0.235E+00  0.235E+00  0.235E+00
  8.610  0.693E+00  0.231E+00  0.231E+00  0.231E+00
  8.620  0.682E+00  0.227E+00  0.227E+00  0.227E+00
  8.630  0.670E+00  0.223E+00  0.223E+00  0.223E+00
  8.640  0.658E+00  0.219E+00  0.219E+00  0.219E+00
  8.650  0.646E+00  0.215E+00  0.215E+00  0.215E+00
  8.660  0.635E+00  0.212E+00  0.212E+00  0.212E+00
  8.670  0.623E+00  0.208E+00  0.208E+00  0.208E+00
  8.680  0.611E+00  0.204E+00  0.204E+00  0.204E+00
  8.690  0.599E+00  0.200E+00  0.200E+00  0.200E+00
  8.700  0.587E+00  0.196E+00  0.196E+00  0.196E+00
  8.710  0.575E+00  0.192E+00  0.192E+00  0.192E+00
  8.720  0.562E+00  0.187E+00  0.187E+00  0.187E+00
  8.730  0.550E+00  0.183E+00  0.183E+00  0.183E+00
  8.740  0.538E+00  0.179E+00  0.179E+00  0.179E+00
  8.750  0.526E+00  0.175E+00  0.175E+00  0.175E+00
  8.760  0.514E+00  0.171E+00  0.171E+00  0.171E+00
  8.770  0.501E+00  0.167E+00  0.167E+00  0.167E+00
  8.780  0.489E+00  0.163E+00  0.163E+00  0.163E+00
  8.790  0.476E+00  0.159E+00  0.159E+00  0.159E+00
  8.800  0.463E+00  0.154E+00  0.154E+00  0.154E+00
  8.810  0.450E+00  0.150E+00  0.150E+00  0.150E+00
  8.820  0.436E+00  0.145E+00  0.145E+00  0.145E+00
  8.830  0.422E+00  0.141E+00  0.141E+00  0.141E+00
  8.840  0.408E+00  0.136E+00  0.136E+00  0.136E+00
  8.850  0.393E+00  0.131E+00  0.131E+00  0.131E+00
  8.860  0.378E+00  0.126E+00  0.126E+00  0.126E+00
  8.870  0.363E+00  0.121E+00  0.121E+00  0.121E+00
  8.880  0.347E+00  0.116E+00  0.116E+00  0.116E+00
  8.890  0.331E+00  0.110E+00  0.110E+00  0.110E+00
  8.900  0.315E+00  0.105E+00  0.105E+00  0.105E+00
  8.910  0.298E+00  0.994E-01  0.994E-01  0.994E-01
  8.920  0.282E+00  0.938E-01  0.938E-01  0.938E-01
  8.930  0.265E+00  0.882E-01  0.882E-01  0.882E-01
  8.940  0.248E+00  0.826E-01  0.826E-01  0.826E-01
  8.950  0.231E+00  0.769E-01  0.769E-01  0.769E-01
  8.960  0.214E+00  0.714E-01  0.714E-01  0.714E-01
  8.970  0.198E+00  0.658E-01  0.658E-01  0.658E-01
  8.980  0.181E+00  0.604E-01  0.604E-01  0.604E-01
  8.990  0.166E+00  0.552E-01  0.552E-01  0.552E-01
  9.000  0.150E+00  0.501E-01  0.501E-01  0.501E-01
  9.010  0.136E+00  0.452E-01  0.452E-01  0.452E-01
  9.020  0.122E+00  0.406E-01  0.406E-01  0.406E-01
  9.030  0.108E+00  0.362E-01  0.362E-01  0.362E-01
  9.040  0.961E-01  0.320E-01  0.320E-01  0.320E-01
  9.050  0.845E-01  0.282E-01  0.282E-01  0.282E-01
  9.060  0.739E-01  0.246E-01  0.246E-01  0.246E-01
  9.070  0.642E-01  0.214E-01  0.214E-01  0.214E-01
  9.080  0.553E-01  0.184E-01  0.184E-01  0.184E-01
  9.090  0.474E-01  0.158E-01  0.158E-01  0.158E-01
  9.100  0.404E-01  0.135E-01  0.135E-01  0.135E-01
  9.110  0.342E-01  0.114E-01  0.114E-01  0.114E-01
  9.120  0.288E-01  0.959E-02  0.959E-02  0.959E-02
  9.130  0.241E-01  0.804E-02  0.804E-02  0.804E-02
  9.140  0.202E-01  0.672E-02  0.672E-02  0.672E-02
  9.150  0.169E-01  0.562E-02  0.562E-02  0.562E-02
  9.160  0.141E-01  0.470E-02  0.470E-02  0.470E-02
  9.170  0.119E-01  0.396E-02  0.396E-02  0.396E-02
  9.180  0.101E-01  0.336E-02  0.336E-02  0.336E-02
  9.190  0.869E-02  0.290E-02  0.290E-02  0.290E-02
  9.200  0.763E-02  0.254E-02  0.254E-02  0.254E-02
  9.210  0.686E-02  0.229E-02  0.229E-02  0.229E-02
  9.220  0.632E-02  0.211E-02  0.211E-02  0.211E-02
  9.230  0.598E-02  0.199E-02  0.199E-02  0.199E-02
  9.240  0.579E-02  0.193E-02  0.193E-02  0.193E-02
  9.250  0.571E-02  0.190E-02  0.190E-02  0.190E-02
  9.260  0.572E-02  0.191E-02  0.191E-02  0.191E-02
  9.270  0.579E-02  0.193E-02  0.193E-02  0.193E-02
  9.280  0.590E-02  0.197E-02  0.197E-02  0.197E-02
  9.290  0.602E-02  0.201E-02  0.201E-02  0.201E-02
  9.300  0.615E-02  0.205E-02  0.205E-02  0.205E-02
  9.310  0.626E-02  0.209E-02  0.209E-02  0.209E-02
  9.320  0.636E-02  0.212E-02  0.212E-02  0.212E-02
  9.330  0.644E-02  0.215E-02  0.215E-02  0.215E-02
  9.340  0.648E-02  0.216E-02  0.216E-02  0.216E-02
  9.350  0.650E-02  0.217E-02  0.217E-02  0.217E-02
  9.360  0.649E-02  0.216E-02  0.216E-02  0.216E-02
  9.370  0.645E-02  0.215E-02  0.215E-02  0.215E-02
  9.380  0.640E-02  0.213E-02  0.213E-02  0.213E-02
  9.390  0.632E-02  0.211E-02  0.211E-02  0.211E-02
  9.400  0.624E-02  0.208E-02  0.208E-02  0.208E-02
  9.410  0.616E-02  0.205E-02  0.205E-02  0.205E-02
  9.420  0.609E-02  0.203E-02  0.203E-02  0.203E-02
  9.430  0.603E-02  0.201E-02  0.201E-02  0.201E-02
  9.440  0.599E-02  0.200E-02  0.200E-02  0.200E-02
  9.450  0.597E-02  0.199E-02  0.199E-02  0.199E-02
  9.460  0.600E-02  0.200E-02  0.200E-02  0.200E-02
  9.470  0.606E-02  0.202E-02  0.202E-02  0.202E-02
  9.480  0.616E-02  0.205E-02  0.205E-02  0.205E-02
  9.490  0.631E-02  0.210E-02  0.210E-02  0.210E-02
  9.500  0.650E-02  0.217E-02  0.217E-02  0.217E-02
  9.510  0.674E-02  0.225E-02  0.225E-02  0.225E-02
  9.520  0.704E-02  0.235E-02  0.235E-02  0.235E-02
  9.530  0.737E-02  0.246E-02  0.246E-02  0.246E-02
  9.540  0.775E-02  0.258E-02  0.258E-02  0.258E-02
  9.550  0.818E-02  0.273E-02  0.273E-02  0.273E-02
  9.560  0.864E-02  0.288E-02  0.288E-02  0.288E-02
  9.570  0.914E-02  0.305E-02  0.305E-02  0.305E-02
  9.580  0.966E-02  0.322E-02  0.322E-02  0.322E-02
  9.590  0.102E-01  0.340E-02  0.340E-02  0.340E-02
  9.600  0.108E-01  0.359E-02  0.359E-02  0.359E-02
  9.610  0.114E-01  0.379E-02  0.379E-02  0.379E-02
  9.620  0.119E-01  0.398E-02  0.398E-02  0.398E-02
  9.630  0.125E-01  0.417E-02  0.417E-02  0.417E-02
  9.640  0.131E-01  0.436E-02  0.436E-02  0.436E-02
  9.650  0.136E-01  0.453E-02  0.453E-02  0.453E-02
  9.660  0.141E-01  0.470E-02  0.470E-02  0.470E-02
  9.670  0.145E-01  0.484E-02  0.484E-02  0.484E-02
  9.680  0.149E-01  0.497E-02  0.497E-02  0.497E-02
  9.690  0.152E-01  0.507E-02  0.507E-02  0.507E-02
  9.700  0.154E-01  0.514E-02  0.514E-02  0.514E-02
  9.710  0.155E-01  0.518E-02  0.518E-02  0.518E-02
  9.720  0.156E-01  0.519E-02  0.519E-02  0.519E-02
  9.730  0.155E-01  0.517E-02  0.517E-02  0.517E-02
  9.740  0.154E-01  0.513E-02  0.513E-02  0.513E-02
  9.750  0.152E-01  0.505E-02  0.505E-02  0.505E-02
  9.760  0.149E-01  0.496E-02  0.496E-02  0.496E-02
  9.770  0.145E-01  0.485E-02  0.485E-02  0.485E-02
  9.780  0.142E-01  0.473E-02  0.473E-02  0.473E-02
  9.790  0.138E-01  0.461E-02  0.461E-02  0.461E-02
  9.800  0.135E-01  0.449E-02  0.449E-02  0.449E-02
  9.810  0.132E-01  0.439E-02  0.439E-02  0.439E-02
  9.820  0.129E-01  0.431E-02  0.431E-02  0.431E-02
  9.830  0.128E-01  0.426E-02  0.426E-02  0.426E-02
  9.840  0.127E-01  0.424E-02  0.424E-02  0.424E-02
  9.850  0.128E-01  0.427E-02  0.427E-02  0.427E-02
  9.860  0.130E-01  0.433E-02  0.433E-02  0.433E-02
  9.870  0.133E-01  0.444E-02  0.444E-02  0.444E-02
  9.880  0.138E-01  0.460E-02  0.460E-02  0.460E-02
  9.890  0.144E-01  0.480E-02  0.480E-02  0.480E-02
  9.900  0.151E-01  0.503E-02  0.503E-02  0.503E-02
  9.910  0.159E-01  0.530E-02  0.530E-02  0.530E-02
  9.920  0.168E-01  0.560E-02  0.560E-02  0.560E-02
  9.930  0.178E-01  0.592E-02  0.592E-02  0.592E-02
  9.940  0.188E-01  0.625E-02  0.625E-02  0.625E-02
  9.950  0.198E-01  0.659E-02  0.659E-02  0.659E-02
  9.960  0.208E-01  0.692E-02  0.692E-02  0.692E-02
  9.970  0.217E-01  0.725E-02  0.725E-02  0.725E-02
  9.980  0.227E-01  0.756E-02  0.756E-02  0.756E-02
  9.990  0.235E-01  0.784E-02  0.784E-02  0.784E-02
 10.000  0.243E-01  0.809E-02  0.809E-02  0.809E-02
 10.010  0.249E-01  0.831E-02  0.831E-02  0.831E-02
 10.020  0.255E-01  0.849E-02  0.849E-02  0.849E-02
 10.030  0.259E-01  0.863E-02  0.863E-02  0.863E-02
 10.040  0.262E-01  0.872E-02  0.872E-02  0.872E-02
 10.050  0.263E-01  0.878E-02  0.878E-02  0.878E-02
 10.060  0.264E-01  0.879E-02  0.879E-02  0.879E-02
 10.070  0.263E-01  0.877E-02  0.877E-02  0.877E-02
 10.080  0.261E-01  0.871E-02  0.871E-02  0.871E-02
 10.090  0.259E-01  0.862E-02  0.862E-02  0.862E-02
 10.100  0.255E-01  0.850E-02  0.850E-02  0.850E-02
 10.110  0.251E-01  0.837E-02  0.837E-02  0.837E-02
 10.120  0.247E-01  0.822E-02  0.822E-02  0.822E-02
 10.130  0.242E-01  0.807E-02  0.807E-02  0.807E-02
 10.140  0.238E-01  0.792E-02  0.792E-02  0.792E-02
 10.150  0.234E-01  0.779E-02  0.779E-02  0.779E-02
 10.160  0.230E-01  0.767E-02  0.767E-02  0.767E-02
 10.170  0.227E-01  0.758E-02  0.758E-02  0.758E-02
 10.180  0.226E-01  0.752E-02  0.752E-02  0.752E-02
 10.190  0.225E-01  0.750E-02  0.750E-02  0.750E-02
 10.200  0.226E-01  0.752E-02  0.752E-02  0.752E-02
 10.210  0.228E-01  0.759E-02  0.759E-02  0.759E-02
 10.220  0.231E-01  0.771E-02  0.771E-02  0.771E-02
 10.230  0.236E-01  0.788E-02  0.788E-02  0.788E-02
 10.240  0.243E-01  0.809E-02  0.809E-02  0.809E-02
 10.250  0.250E-01  0.835E-02  0.835E-02  0.835E-02
 10.260  0.259E-01  0.864E-02  0.864E-02  0.864E-02
 10.270  0.269E-01  0.897E-02  0.897E-02  0.897E-02
 10.280  0.280E-01  0.933E-02  0.933E-02  0.933E-02
 10.290  0.291E-01  0.970E-02  0.970E-02  0.970E-02
 10.300  0.303E-01  0.101E-01  0.101E-01  0.101E-01
 10.310  0.314E-01  0.105E-01  0.105E-01  0.105E-01
 10.320  0.325E-01  0.108E-01  0.108E-01  0.108E-01
 10.330  0.336E-01  0.112E-01  0.112E-01  0.112E-01
 10.340  0.347E-01  0.116E-01  0.116E-01  0.116E-01
 10.350  0.356E-01  0.119E-01  0.119E-01  0.119E-01
 10.360  0.364E-01  0.121E-01  0.121E-01  0.121E-01
 10.370  0.371E-01  0.124E-01  0.124E-01  0.124E-01
 10.380  0.377E-01  0.126E-01  0.126E-01  0.126E-01
 10.390  0.382E-01  0.127E-01  0.127E-01  0.127E-01
 10.400  0.385E-01  0.128E-01  0.128E-01  0.128E-01
 10.410  0.387E-01  0.129E-01  0.129E-01  0.129E-01
 10.420  0.388E-01  0.129E-01  0.129E-01  0.129E-01
 10.430  0.387E-01  0.129E-01  0.129E-01  0.129E-01
 10.440  0.386E-01  0.129E-01  0.129E-01  0.129E-01
 10.450  0.385E-01  0.128E-01  0.128E-01  0.128E-01
 10.460  0.382E-01  0.127E-01  0.127E-01  0.127E-01
 10.470  0.380E-01  0.127E-01  0.127E-01  0.127E-01
 10.480  0.377E-01  0.126E-01  0.126E-01  0.126E-01
 10.490  0.374E-01  0.125E-01  0.125E-01  0.125E-01
 10.500  0.371E-01  0.124E-01  0.124E-01  0.124E-01
 10.510  0.368E-01  0.123E-01  0.123E-01  0.123E-01
 10.520  0.366E-01  0.122E-01  0.122E-01  0.122E-01
 10.530  0.364E-01  0.121E-01  0.121E-01  0.121E-01
 10.540  0.363E-01  0.121E-01  0.121E-01  0.121E-01
 10.550  0.363E-01  0.121E-01  0.121E-01  0.121E-01
 10.560  0.363E-01  0.121E-01  0.121E-01  0.121E-01
 10.570  0.364E-01  0.121E-01  0.121E-01  0.121E-01
 10.580  0.365E-01  0.122E-01  0.122E-01  0.122E-01
 10.590  0.368E-01  0.123E-01  0.123E-01  0.123E-01
 10.600  0.372E-01  0.124E-01  0.124E-01  0.124E-01
 10.610  0.376E-01  0.125E-01  0.125E-01  0.125E-01
 10.620  0.382E-01  0.127E-01  0.127E-01  0.127E-01
 10.630  0.389E-01  0.130E-01  0.130E-01  0.130E-01
 10.640  0.396E-01  0.132E-01  0.132E-01  0.132E-01
 10.650  0.405E-01  0.135E-01  0.135E-01  0.135E-01
 10.660  0.415E-01  0.138E-01  0.138E-01  0.138E-01
 10.670  0.426E-01  0.142E-01  0.142E-01  0.142E-01
 10.680  0.438E-01  0.146E-01  0.146E-01  0.146E-01
 10.690  0.450E-01  0.150E-01  0.150E-01  0.150E-01
 10.700  0.463E-01  0.154E-01  0.154E-01  0.154E-01
 10.710  0.476E-01  0.159E-01  0.159E-01  0.159E-01
 10.720  0.489E-01  0.163E-01  0.163E-01  0.163E-01
 10.730  0.501E-01  0.167E-01  0.167E-01  0.167E-01
 10.740  0.514E-01  0.171E-01  0.171E-01  0.171E-01
 10.750  0.525E-01  0.175E-01  0.175E-01  0.175E-01
 10.760  0.535E-01  0.178E-01  0.178E-01  0.178E-01
 10.770  0.544E-01  0.181E-01  0.181E-01  0.181E-01
 10.780  0.552E-01  0.184E-01  0.184E-01  0.184E-01
 10.790  0.557E-01  0.186E-01  0.186E-01  0.186E-01
 10.800  0.562E-01  0.187E-01  0.187E-01  0.187E-01
 10.810  0.564E-01  0.188E-01  0.188E-01  0.188E-01
 10.820  0.564E-01  0.188E-01  0.188E-01  0.188E-01
 10.830  0.563E-01  0.188E-01  0.188E-01  0.188E-01
 10.840  0.561E-01  0.187E-01  0.187E-01  0.187E-01
 10.850  0.557E-01  0.186E-01  0.186E-01  0.186E-01
 10.860  0.552E-01  0.184E-01  0.184E-01  0.184E-01
 10.870  0.546E-01  0.182E-01  0.182E-01  0.182E-01
 10.880  0.539E-01  0.180E-01  0.180E-01  0.180E-01
 10.890  0.532E-01  0.177E-01  0.177E-01  0.177E-01
 10.900  0.524E-01  0.175E-01  0.175E-01  0.175E-01
 10.910  0.517E-01  0.172E-01  0.172E-01  0.172E-01
 10.920  0.511E-01  0.170E-01  0.170E-01  0.170E-01
 10.930  0.505E-01  0.168E-01  0.168E-01  0.168E-01
 10.940  0.500E-01  0.167E-01  0.167E-01  0.167E-01
 10.950  0.497E-01  0.166E-01  0.166E-01  0.166E-01
 10.960  0.496E-01  0.165E-01  0.165E-01  0.165E-01
 10.970  0.496E-01  0.165E-01  0.165E-01  0.165E-01
 10.980  0.499E-01  0.166E-01  0.166E-01  0.166E-01
 10.990  0.505E-01  0.168E-01  0.168E-01  0.168E-01
 11.000  0.513E-01  0.171E-01  0.171E-01  0.171E-01
 11.010  0.523E-01  0.174E-01  0.174E-01  0.174E-01
 11.020  0.537E-01  0.179E-01  0.179E-01  0.179E-01
 11.030  0.552E-01  0.184E-01  0.184E-01  0.184E-01
 11.040  0.570E-01  0.190E-01  0.190E-01  0.190E-01
 11.050  0.589E-01  0.196E-01  0.196E-01  0.196E-01
 11.060  0.610E-01  0.203E-01  0.203E-01  0.203E-01
 11.070  0.631E-01  0.210E-01  0.210E-01  0.210E-01
 11.080  0.653E-01  0.218E-01  0.218E-01  0.218E-01
 11.090  0.674E-01  0.225E-01  0.225E-01  0.225E-01
 11.100  0.695E-01  0.232E-01  0.232E-01  0.232E-01
 11.110  0.714E-01  0.238E-01  0.238E-01  0.238E-01
 11.120  0.730E-01  0.243E-01  0.243E-01  0.243E-01
 11.130  0.745E-01  0.248E-01  0.248E-01  0.248E-01
 11.140  0.756E-01  0.252E-01  0.252E-01  0.252E-01
 11.150  0.764E-01  0.255E-01  0.255E-01  0.255E-01
 11.160  0.770E-01  0.257E-01  0.257E-01  0.257E-01
 11.170  0.772E-01  0.257E-01  0.257E-01  0.257E-01
 11.180  0.771E-01  0.257E-01  0.257E-01  0.257E-01
 11.190  0.768E-01  0.256E-01  0.256E-01  0.256E-01
 11.200  0.762E-01  0.254E-01  0.254E-01  0.254E-01
 11.210  0.754E-01  0.251E-01  0.251E-01  0.251E-01
 11.220  0.744E-01  0.248E-01  0.248E-01  0.248E-01
 11.230  0.734E-01  0.245E-01  0.245E-01  0.245E-01
 11.240  0.723E-01  0.241E-01  0.241E-01  0.241E-01
 11.250  0.712E-01  0.237E-01  0.237E-01  0.237E-01
 11.260  0.701E-01  0.234E-01  0.234E-01  0.234E-01
 11.270  0.691E-01  0.230E-01  0.230E-01  0.230E-01
 11.280  0.682E-01  0.227E-01  0.227E-01  0.227E-01
 11.290  0.675E-01  0.225E-01  0.225E-01  0.225E-01
 11.300  0.670E-01  0.223E-01  0.223E-01  0.223E-01
 11.310  0.667E-01  0.222E-01  0.222E-01  0.222E-01
 11.320  0.666E-01  0.222E-01  0.222E-01  0.222E-01
 11.330  0.668E-01  0.223E-01  0.223E-01  0.223E-01
 11.340  0.673E-01  0.224E-01  0.224E-01  0.224E-01
 11.350  0.680E-01  0.227E-01  0.227E-01  0.227E-01
 11.360  0.689E-01  0.230E-01  0.230E-01  0.230E-01
 11.370  0.702E-01  0.234E-01  0.234E-01  0.234E-01
 11.380  0.716E-01  0.239E-01  0.239E-01  0.239E-01
 11.390  0.733E-01  0.244E-01  0.244E-01  0.244E-01
 11.400  0.752E-01  0.251E-01  0.251E-01  0.251E-01
 11.410  0.772E-01  0.257E-01  0.257E-01  0.257E-01
 11.420  0.793E-01  0.264E-01  0.264E-01  0.264E-01
 11.430  0.815E-01  0.272E-01  0.272E-01  0.272E-01
 11.440  0.837E-01  0.279E-01  0.279E-01  0.279E-01
 11.450  0.859E-01  0.286E-01  0.286E-01  0.286E-01
 11.460  0.880E-01  0.293E-01  0.293E-01  0.293E-01
 11.470  0.900E-01  0.300E-01  0.300E-01  0.300E-01
 11.480  0.918E-01  0.306E-01  0.306E-01  0.306E-01
 11.490  0.934E-01  0.311E-01  0.311E-01  0.311E-01
 11.500  0.948E-01  0.316E-01  0.316E-01  0.316E-01
 11.510  0.959E-01  0.320E-01  0.320E-01  0.320E-01
 11.520  0.968E-01  0.323E-01  0.323E-01  0.323E-01
 11.530  0.975E-01  0.325E-01  0.325E-01  0.325E-01
 11.540  0.979E-01  0.326E-01  0.326E-01  0.326E-01
 11.550  0.981E-01  0.327E-01  0.327E-01  0.327E-01
 11.560  0.981E-01  0.327E-01  0.327E-01  0.327E-01
 11.570  0.979E-01  0.326E-01  0.326E-01  0.326E-01
 11.580  0.976E-01  0.325E-01  0.325E-01  0.325E-01
 11.590  0.972E-01  0.324E-01  0.324E-01  0.324E-01
 11.600  0.968E-01  0.323E-01  0.323E-01  0.323E-01
 11.610  0.962E-01  0.321E-01  0.321E-01  0.321E-01
 11.620  0.957E-01  0.319E-01  0.319E-01  0.319E-01
 11.630  0.952E-01  0.317E-01  0.317E-01  0.317E-01
 11.640  0.947E-01  0.316E-01  0.316E-01  0.316E-01
 11.650  0.942E-01  0.314E-01  0.314E-01  0.314E-01
 11.660  0.939E-01  0.313E-01  0.313E-01  0.313E-01
 11.670  0.937E-01  0.312E-01  0.312E-01  0.312E-01
 11.680  0.935E-01  0.312E-01  0.312E-01  0.312E-01
 11.690  0.936E-01  0.312E-01  0.312E-01  0.312E-01
 11.700  0.937E-01  0.312E-01  0.312E-01  0.312E-01
 11.710  0.940E-01  0.313E-01  0.313E-01  0.313E-01
 11.720  0.945E-01  0.315E-01  0.315E-01  0.315E-01
 11.730  0.952E-01  0.317E-01  0.317E-01  0.317E-01
 11.740  0.961E-01  0.320E-01  0.320E-01  0.320E-01
 11.750  0.971E-01  0.324E-01  0.324E-01  0.324E-01
 11.760  0.983E-01  0.328E-01  0.328E-01  0.328E-01
 11.770  0.996E-01  0.332E-01  0.332E-01  0.332E-01
 11.780  0.101E+00  0.337E-01  0.337E-01  0.337E-01
 11.790  0.103E+00  0.343E-01  0.343E-01  0.343E-01
 11.800  0.105E+00  0.349E-01  0.349E-01  0.349E-01
 11.810  0.106E+00  0.355E-01  0.355E-01  0.355E-01
 11.820  0.109E+00  0.362E-01  0.362E-01  0.362E-01
 11.830  0.111E+00  0.369E-01  0.369E-01  0.369E-01
 11.840  0.113E+00  0.376E-01  0.376E-01  0.376E-01
 11.850  0.115E+00  0.383E-01  0.383E-01  0.383E-01
 11.860  0.117E+00  0.391E-01  0.391E-01  0.391E-01
 11.870  0.119E+00  0.398E-01  0.398E-01  0.398E-01
 11.880  0.122E+00  0.405E-01  0.405E-01  0.405E-01
 11.890  0.124E+00  0.412E-01  0.412E-01  0.412E-01
 11.900  0.126E+00  0.419E-01  0.419E-01  0.419E-01
 11.910  0.127E+00  0.425E-01  0.425E-01  0.425E-01
 11.920  0.129E+00  0.431E-01  0.431E-01  0.431E-01
 11.930  0.131E+00  0.436E-01  0.436E-01  0.436E-01
 11.940  0.132E+00  0.441E-01  0.441E-01  0.441E-01
 11.950  0.133E+00  0.445E-01  0.445E-01  0.445E-01
 11.960  0.135E+00  0.448E-01  0.448E-01  0.448E-01
 11.970  0.135E+00  0.451E-01  0.451E-01  0.451E-01
 11.980  0.136E+00  0.454E-01  0.454E-01  0.454E-01
 11.990  0.137E+00  0.456E-01  0.456E-01  0.456E-01
 12.000  0.137E+00  0.457E-01  0.457E-01  0.457E-01
 12.010  0.138E+00  0.459E-01  0.459E-01  0.459E-01
 12.020  0.138E+00  0.460E-01  0.460E-01  0.460E-01
 12.030  0.138E+00  0.461E-01  0.461E-01  0.461E-01
 12.040  0.139E+00  0.463E-01  0.463E-01  0.463E-01
 12.050  0.139E+00  0.465E-01  0.465E-01  0.465E-01
 12.060  0.140E+00  0.467E-01  0.467E-01  0.467E-01
 12.070  0.141E+00  0.469E-01  0.469E-01  0.469E-01
 12.080  0.142E+00  0.472E-01  0.472E-01  0.472E-01
 12.090  0.143E+00  0.475E-01  0.475E-01  0.475E-01
 12.100  0.144E+00  0.479E-01  0.479E-01  0.479E-01
 12.110  0.145E+00  0.483E-01  0.483E-01  0.483E-01
 12.120  0.146E+00  0.488E-01  0.488E-01  0.488E-01
 12.130  0.148E+00  0.493E-01  0.493E-01  0.493E-01
 12.140  0.149E+00  0.498E-01  0.498E-01  0.498E-01
 12.150  0.151E+00  0.503E-01  0.503E-01  0.503E-01
 12.160  0.152E+00  0.507E-01  0.507E-01  0.507E-01
 12.170  0.154E+00  0.512E-01  0.512E-01  0.512E-01
 12.180  0.155E+00  0.516E-01  0.516E-01  0.516E-01
 12.190  0.156E+00  0.520E-01  0.520E-01  0.520E-01
 12.200  0.157E+00  0.523E-01  0.523E-01  0.523E-01
 12.210  0.158E+00  0.527E-01  0.527E-01  0.527E-01
 12.220  0.159E+00  0.529E-01  0.529E-01  0.529E-01
 12.230  0.159E+00  0.532E-01  0.532E-01  0.532E-01
 12.240  0.160E+00  0.534E-01  0.534E-01  0.534E-01
 12.250  0.161E+00  0.535E-01  0.535E-01  0.535E-01
 12.260  0.161E+00  0.537E-01  0.537E-01  0.537E-01
 12.270  0.162E+00  0.539E-01  0.539E-01  0.539E-01
 12.280  0.162E+00  0.541E-01  0.541E-01  0.541E-01
 12.290  0.163E+00  0.543E-01  0.543E-01  0.543E-01
 12.300  0.164E+00  0.545E-01  0.545E-01  0.545E-01
 12.310  0.164E+00  0.548E-01  0.548E-01  0.548E-01
 12.320  0.165E+00  0.550E-01  0.550E-01  0.550E-01
 12.330  0.166E+00  0.554E-01  0.554E-01  0.554E-01
 12.340  0.167E+00  0.557E-01  0.557E-01  0.557E-01
 12.350  0.168E+00  0.561E-01  0.561E-01  0.561E-01
 12.360  0.169E+00  0.565E-01  0.565E-01  0.565E-01
 12.370  0.171E+00  0.568E-01  0.568E-01  0.568E-01
 12.380  0.172E+00  0.572E-01  0.572E-01  0.572E-01
 12.390  0.173E+00  0.576E-01  0.576E-01  0.576E-01
 12.400  0.174E+00  0.580E-01  0.580E-01  0.580E-01
 12.410  0.175E+00  0.583E-01  0.583E-01  0.583E-01
 12.420  0.176E+00  0.585E-01  0.585E-01  0.585E-01
 12.430  0.176E+00  0.587E-01  0.587E-01  0.587E-01
 12.440  0.177E+00  0.589E-01  0.589E-01  0.589E-01
 12.450  0.177E+00  0.589E-01  0.589E-01  0.589E-01
 12.460  0.177E+00  0.589E-01  0.589E-01  0.589E-01
 12.470  0.176E+00  0.587E-01  0.587E-01  0.587E-01
 12.480  0.176E+00  0.585E-01  0.585E-01  0.585E-01
 12.490  0.175E+00  0.582E-01  0.582E-01  0.582E-01
 12.500  0.174E+00  0.579E-01  0.579E-01  0.579E-01
 12.510  0.172E+00  0.574E-01  0.574E-01  0.574E-01
 12.520  0.171E+00  0.569E-01  0.569E-01  0.569E-01
 12.530  0.169E+00  0.564E-01  0.564E-01  0.564E-01
 12.540  0.167E+00  0.558E-01  0.558E-01  0.558E-01
 12.550  0.166E+00  0.552E-01  0.552E-01  0.552E-01
 12.560  0.164E+00  0.546E-01  0.546E-01  0.546E-01
 12.570  0.162E+00  0.540E-01  0.540E-01  0.540E-01
 12.580  0.160E+00  0.534E-01  0.534E-01  0.534E-01
 12.590  0.159E+00  0.530E-01  0.530E-01  0.530E-01
 12.600  0.158E+00  0.525E-01  0.525E-01  0.525E-01
 12.610  0.157E+00  0.522E-01  0.522E-01  0.522E-01
 12.620  0.156E+00  0.520E-01  0.520E-01  0.520E-01
 12.630  0.156E+00  0.519E-01  0.519E-01  0.519E-01
 12.640  0.156E+00  0.520E-01  0.520E-01  0.520E-01
 12.650  0.157E+00  0.522E-01  0.522E-01  0.522E-01
 12.660  0.158E+00  0.525E-01  0.525E-01  0.525E-01
 12.670  0.159E+00  0.530E-01  0.530E-01  0.530E-01
 12.680  0.161E+00  0.537E-01  0.537E-01  0.537E-01
 12.690  0.163E+00  0.544E-01  0.544E-01  0.544E-01
 12.700  0.166E+00  0.553E-01  0.553E-01  0.553E-01
 12.710  0.169E+00  0.563E-01  0.563E-01  0.563E-01
 12.720  0.172E+00  0.573E-01  0.573E-01  0.573E-01
 12.730  0.175E+00  0.584E-01  0.584E-01  0.584E-01
 12.740  0.178E+00  0.595E-01  0.595E-01  0.595E-01
 12.750  0.182E+00  0.605E-01  0.605E-01  0.605E-01
 12.760  0.184E+00  0.615E-01  0.615E-01  0.615E-01
 12.770  0.187E+00  0.623E-01  0.623E-01  0.623E-01
 12.780  0.189E+00  0.630E-01  0.630E-01  0.630E-01
 12.790  0.191E+00  0.635E-01  0.635E-01  0.635E-01
 12.800  0.191E+00  0.638E-01  0.638E-01  0.638E-01
 12.810  0.192E+00  0.639E-01  0.639E-01  0.639E-01
 12.820  0.191E+00  0.637E-01  0.637E-01  0.637E-01
 12.830  0.190E+00  0.633E-01  0.633E-01  0.633E-01
 12.840  0.188E+00  0.627E-01  0.627E-01  0.627E-01
 12.850  0.185E+00  0.618E-01  0.618E-01  0.618E-01
 12.860  0.182E+00  0.608E-01  0.608E-01  0.608E-01
 12.870  0.179E+00  0.596E-01  0.596E-01  0.596E-01
 12.880  0.175E+00  0.583E-01  0.583E-01  0.583E-01
 12.890  0.171E+00  0.569E-01  0.569E-01  0.569E-01
 12.900  0.167E+00  0.556E-01  0.556E-01  0.556E-01
 12.910  0.163E+00  0.543E-01  0.543E-01  0.543E-01
 12.920  0.159E+00  0.531E-01  0.531E-01  0.531E-01
 12.930  0.156E+00  0.521E-01  0.521E-01  0.521E-01
 12.940  0.154E+00  0.512E-01  0.512E-01  0.512E-01
 12.950  0.152E+00  0.505E-01  0.505E-01  0.505E-01
 12.960  0.150E+00  0.501E-01  0.501E-01  0.501E-01
 12.970  0.150E+00  0.499E-01  0.499E-01  0.499E-01
 12.980  0.150E+00  0.500E-01  0.500E-01  0.500E-01
 12.990  0.151E+00  0.503E-01  0.503E-01  0.503E-01
 13.000  0.152E+00  0.508E-01  0.508E-01  0.508E-01
 13.010  0.154E+00  0.514E-01  0.514E-01  0.514E-01
 13.020  0.157E+00  0.523E-01  0.523E-01  0.523E-01
 13.030  0.160E+00  0.532E-01  0.532E-01  0.532E-01
 13.040  0.163E+00  0.542E-01  0.542E-01  0.542E-01
 13.050  0.166E+00  0.552E-01  0.552E-01  0.552E-01
 13.060  0.169E+00  0.562E-01  0.562E-01  0.562E-01
 13.070  0.171E+00  0.571E-01  0.571E-01  0.571E-01
 13.080  0.174E+00  0.579E-01  0.579E-01  0.579E-01
 13.090  0.176E+00  0.587E-01  0.587E-01  0.587E-01
 13.100  0.178E+00  0.592E-01  0.592E-01  0.592E-01
 13.110  0.179E+00  0.597E-01  0.597E-01  0.597E-01
 13.120  0.180E+00  0.599E-01  0.599E-01  0.599E-01
 13.130  0.180E+00  0.600E-01  0.600E-01  0.600E-01
 13.140  0.180E+00  0.600E-01  0.600E-01  0.600E-01
 13.150  0.179E+00  0.598E-01  0.598E-01  0.598E-01
 13.160  0.178E+00  0.595E-01  0.595E-01  0.595E-01
 13.170  0.177E+00  0.590E-01  0.590E-01  0.590E-01
 13.180  0.176E+00  0.585E-01  0.585E-01  0.585E-01
 13.190  0.174E+00  0.580E-01  0.580E-01  0.580E-01
 13.200  0.172E+00  0.574E-01  0.574E-01  0.574E-01
 13.210  0.170E+00  0.568E-01  0.568E-01  0.568E-01
 13.220  0.168E+00  0.562E-01  0.562E-01  0.562E-01
 13.230  0.167E+00  0.556E-01  0.556E-01  0.556E-01
 13.240  0.165E+00  0.550E-01  0.550E-01  0.550E-01
 13.250  0.164E+00  0.545E-01  0.545E-01  0.545E-01
 13.260  0.162E+00  0.541E-01  0.541E-01  0.541E-01
 13.270  0.161E+00  0.537E-01  0.537E-01  0.537E-01
 13.280  0.160E+00  0.533E-01  0.533E-01  0.533E-01
 13.290  0.159E+00  0.531E-01  0.531E-01  0.531E-01
 13.300  0.159E+00  0.528E-01  0.528E-01  0.528E-01
 13.310  0.158E+00  0.527E-01  0.527E-01  0.527E-01
 13.320  0.158E+00  0.525E-01  0.525E-01  0.525E-01
 13.330  0.157E+00  0.524E-01  0.524E-01  0.524E-01
 13.340  0.157E+00  0.523E-01  0.523E-01  0.523E-01
 13.350  0.156E+00  0.522E-01  0.522E-01  0.522E-01
 13.360  0.156E+00  0.520E-01  0.520E-01  0.520E-01
 13.370  0.156E+00  0.519E-01  0.519E-01  0.519E-01
 13.380  0.155E+00  0.518E-01  0.518E-01  0.518E-01
 13.390  0.155E+00  0.517E-01  0.517E-01  0.517E-01
 13.400  0.155E+00  0.515E-01  0.515E-01  0.515E-01
 13.410  0.154E+00  0.514E-01  0.514E-01  0.514E-01
 13.420  0.154E+00  0.512E-01  0.512E-01  0.512E-01
 13.430  0.153E+00  0.510E-01  0.510E-01  0.510E-01
 13.440  0.153E+00  0.509E-01  0.509E-01  0.509E-01
 13.450  0.152E+00  0.508E-01  0.508E-01  0.508E-01
 13.460  0.152E+00  0.507E-01  0.507E-01  0.507E-01
 13.470  0.152E+00  0.507E-01  0.507E-01  0.507E-01
 13.480  0.152E+00  0.507E-01  0.507E-01  0.507E-01
 13.490  0.152E+00  0.508E-01  0.508E-01  0.508E-01
 13.500  0.153E+00  0.509E-01  0.509E-01  0.509E-01
 13.510  0.153E+00  0.510E-01  0.510E-01  0.510E-01
 13.520  0.154E+00  0.512E-01  0.512E-01  0.512E-01
 13.530  0.154E+00  0.515E-01  0.515E-01  0.515E-01
 13.540  0.155E+00  0.517E-01  0.517E-01  0.517E-01
 13.550  0.156E+00  0.520E-01  0.520E-01  0.520E-01
 13.560  0.157E+00  0.523E-01  0.523E-01  0.523E-01
 13.570  0.158E+00  0.526E-01  0.526E-01  0.526E-01
 13.580  0.159E+00  0.529E-01  0.529E-01  0.529E-01
 13.590  0.159E+00  0.531E-01  0.531E-01  0.531E-01
 13.600  0.160E+00  0.532E-01  0.532E-01  0.532E-01
 13.610  0.160E+00  0.533E-01  0.533E-01  0.533E-01
 13.620  0.160E+00  0.532E-01  0.532E-01  0.532E-01
 13.630  0.159E+00  0.530E-01  0.530E-01  0.530E-01
 13.640  0.158E+00  0.527E-01  0.527E-01  0.527E-01
 13.650  0.157E+00  0.523E-01  0.523E-01  0.523E-01
 13.660  0.155E+00  0.517E-01  0.517E-01  0.517E-01
 13.670  0.153E+00  0.511E-01  0.511E-01  0.511E-01
 13.680  0.151E+00  0.503E-01  0.503E-01  0.503E-01
 13.690  0.148E+00  0.494E-01  0.494E-01  0.494E-01
 13.700  0.146E+00  0.485E-01  0.485E-01  0.485E-01
 13.710  0.143E+00  0.476E-01  0.476E-01  0.476E-01
 13.720  0.140E+00  0.467E-01  0.467E-01  0.467E-01
 13.730  0.137E+00  0.458E-01  0.458E-01  0.458E-01
 13.740  0.135E+00  0.449E-01  0.449E-01  0.449E-01
 13.750  0.133E+00  0.442E-01  0.442E-01  0.442E-01
 13.760  0.131E+00  0.436E-01  0.436E-01  0.436E-01
 13.770  0.129E+00  0.431E-01  0.431E-01  0.431E-01
 13.780  0.128E+00  0.428E-01  0.428E-01  0.428E-01
 13.790  0.128E+00  0.426E-01  0.426E-01  0.426E-01
 13.800  0.128E+00  0.426E-01  0.426E-01  0.426E-01
 13.810  0.128E+00  0.427E-01  0.427E-01  0.427E-01
 13.820  0.129E+00  0.430E-01  0.430E-01  0.430E-01
 13.830  0.130E+00  0.434E-01  0.434E-01  0.434E-01
 13.840  0.132E+00  0.439E-01  0.439E-01  0.439E-01
 13.850  0.133E+00  0.444E-01  0.444E-01  0.444E-01
 13.860  0.135E+00  0.450E-01  0.450E-01  0.450E-01
 13.870  0.137E+00  0.456E-01  0.456E-01  0.456E-01
 13.880  0.138E+00  0.461E-01  0.461E-01  0.461E-01
 13.890  0.140E+00  0.466E-01  0.466E-01  0.466E-01
 13.900  0.141E+00  0.470E-01  0.470E-01  0.470E-01
 13.910  0.142E+00  0.473E-01  0.473E-01  0.473E-01
 13.920  0.142E+00  0.475E-01  0.475E-01  0.475E-01
 13.930  0.143E+00  0.475E-01  0.475E-01  0.475E-01
 13.940  0.142E+00  0.474E-01  0.474E-01  0.474E-01
 13.950  0.142E+00  0.472E-01  0.472E-01  0.472E-01
 13.960  0.141E+00  0.469E-01  0.469E-01  0.469E-01
 13.970  0.139E+00  0.464E-01  0.464E-01  0.464E-01
 13.980  0.138E+00  0.459E-01  0.459E-01  0.459E-01
 13.990  0.136E+00  0.453E-01  0.453E-01  0.453E-01
 14.000  0.134E+00  0.446E-01  0.446E-01  0.446E-01
 14.010  0.132E+00  0.439E-01  0.439E-01  0.439E-01
 14.020  0.130E+00  0.432E-01  0.432E-01  0.432E-01
 14.030  0.128E+00  0.425E-01  0.425E-01  0.425E-01
 14.040  0.126E+00  0.419E-01  0.419E-01  0.419E-01
 14.050  0.124E+00  0.413E-01  0.413E-01  0.413E-01
 14.060  0.122E+00  0.407E-01  0.407E-01  0.407E-01
 14.070  0.121E+00  0.403E-01  0.403E-01  0.403E-01
 14.080  0.120E+00  0.399E-01  0.399E-01  0.399E-01
 14.090  0.119E+00  0.396E-01  0.396E-01  0.396E-01
 14.100  0.118E+00  0.394E-01  0.394E-01  0.394E-01
 14.110  0.118E+00  0.393E-01  0.393E-01  0.393E-01
 14.120  0.118E+00  0.393E-01  0.393E-01  0.393E-01
 14.130  0.118E+00  0.393E-01  0.393E-01  0.393E-01
 14.140  0.118E+00  0.393E-01  0.393E-01  0.393E-01
 14.150  0.118E+00  0.394E-01  0.394E-01  0.394E-01
 14.160  0.118E+00  0.394E-01  0.394E-01  0.394E-01
 14.170  0.118E+00  0.394E-01  0.394E-01  0.394E-01
 14.180  0.118E+00  0.393E-01  0.393E-01  0.393E-01
 14.190  0.118E+00  0.392E-01  0.392E-01  0.392E-01
 14.200  0.117E+00  0.389E-01  0.389E-01  0.389E-01
 14.210  0.116E+00  0.386E-01  0.386E-01  0.386E-01
 14.220  0.114E+00  0.381E-01  0.381E-01  0.381E-01
 14.230  0.113E+00  0.375E-01  0.375E-01  0.375E-01
 14.240  0.110E+00  0.368E-01  0.368E-01  0.368E-01
 14.250  0.108E+00  0.360E-01  0.360E-01  0.360E-01
 14.260  0.105E+00  0.350E-01  0.350E-01  0.350E-01
 14.270  0.102E+00  0.339E-01  0.339E-01  0.339E-01
 14.280  0.984E-01  0.328E-01  0.328E-01  0.328E-01
 14.290  0.947E-01  0.316E-01  0.316E-01  0.316E-01
 14.300  0.909E-01  0.303E-01  0.303E-01  0.303E-01
 14.310  0.870E-01  0.290E-01  0.290E-01  0.290E-01
 14.320  0.832E-01  0.277E-01  0.277E-01  0.277E-01
 14.330  0.794E-01  0.265E-01  0.265E-01  0.265E-01
 14.340  0.757E-01  0.252E-01  0.252E-01  0.252E-01
 14.350  0.722E-01  0.241E-01  0.241E-01  0.241E-01
 14.360  0.690E-01  0.230E-01  0.230E-01  0.230E-01
 14.370  0.661E-01  0.220E-01  0.220E-01  0.220E-01
 14.380  0.636E-01  0.212E-01  0.212E-01  0.212E-01
 14.390  0.616E-01  0.205E-01  0.205E-01  0.205E-01
 14.400  0.600E-01  0.200E-01  0.200E-01  0.200E-01
 14.410  0.591E-01  0.197E-01  0.197E-01  0.197E-01
 14.420  0.587E-01  0.196E-01  0.196E-01  0.196E-01
 14.430  0.589E-01  0.196E-01  0.196E-01  0.196E-01
 14.440  0.598E-01  0.199E-01  0.199E-01  0.199E-01
 14.450  0.614E-01  0.205E-01  0.205E-01  0.205E-01
 14.460  0.636E-01  0.212E-01  0.212E-01  0.212E-01
 14.470  0.666E-01  0.222E-01  0.222E-01  0.222E-01
 14.480  0.703E-01  0.234E-01  0.234E-01  0.234E-01
 14.490  0.747E-01  0.249E-01  0.249E-01  0.249E-01
 14.500  0.799E-01  0.266E-01  0.266E-01  0.266E-01
 14.510  0.857E-01  0.286E-01  0.286E-01  0.286E-01
 14.520  0.923E-01  0.308E-01  0.308E-01  0.308E-01
 14.530  0.997E-01  0.332E-01  0.332E-01  0.332E-01
 14.540  0.108E+00  0.359E-01  0.359E-01  0.359E-01
 14.550  0.117E+00  0.388E-01  0.388E-01  0.388E-01
 14.560  0.126E+00  0.420E-01  0.420E-01  0.420E-01
 14.570  0.136E+00  0.455E-01  0.455E-01  0.455E-01
 14.580  0.147E+00  0.492E-01  0.492E-01  0.492E-01
 14.590  0.159E+00  0.531E-01  0.531E-01  0.531E-01
 14.600  0.172E+00  0.573E-01  0.573E-01  0.573E-01
 14.610  0.185E+00  0.618E-01  0.618E-01  0.618E-01
 14.620  0.199E+00  0.665E-01  0.665E-01  0.665E-01
 14.630  0.214E+00  0.714E-01  0.714E-01  0.714E-01
 14.640  0.230E+00  0.766E-01  0.766E-01  0.766E-01
 14.650  0.246E+00  0.820E-01  0.820E-01  0.820E-01
 14.660  0.263E+00  0.876E-01  0.876E-01  0.876E-01
 14.670  0.280E+00  0.934E-01  0.934E-01  0.934E-01
 14.680  0.298E+00  0.993E-01  0.993E-01  0.993E-01
 14.690  0.316E+00  0.105E+00  0.105E+00  0.105E+00
 14.700  0.335E+00  0.112E+00  0.112E+00  0.112E+00
 14.710  0.354E+00  0.118E+00  0.118E+00  0.118E+00
 14.720  0.373E+00  0.124E+00  0.124E+00  0.124E+00
 14.730  0.393E+00  0.131E+00  0.131E+00  0.131E+00
 14.740  0.412E+00  0.137E+00  0.137E+00  0.137E+00
 14.750  0.432E+00  0.144E+00  0.144E+00  0.144E+00
 14.760  0.452E+00  0.151E+00  0.151E+00  0.151E+00
 14.770  0.473E+00  0.158E+00  0.158E+00  0.158E+00
 14.780  0.493E+00  0.164E+00  0.164E+00  0.164E+00
 14.790  0.514E+00  0.171E+00  0.171E+00  0.171E+00
 14.800  0.535E+00  0.178E+00  0.178E+00  0.178E+00
 14.810  0.556E+00  0.185E+00  0.185E+00  0.185E+00
 14.820  0.578E+00  0.193E+00  0.193E+00  0.193E+00
 14.830  0.600E+00  0.200E+00  0.200E+00  0.200E+00
 14.840  0.621E+00  0.207E+00  0.207E+00  0.207E+00
 14.850  0.643E+00  0.214E+00  0.214E+00  0.214E+00
 14.860  0.664E+00  0.221E+00  0.221E+00  0.221E+00
 14.870  0.686E+00  0.229E+00  0.229E+00  0.229E+00
 14.880  0.706E+00  0.235E+00  0.235E+00  0.235E+00
 14.890  0.726E+00  0.242E+00  0.242E+00  0.242E+00
 14.900  0.745E+00  0.248E+00  0.248E+00  0.248E+00
 14.910  0.762E+00  0.254E+00  0.254E+00  0.254E+00
 14.920  0.778E+00  0.259E+00  0.259E+00  0.259E+00
 14.930  0.792E+00  0.264E+00  0.264E+00  0.264E+00
 14.940  0.803E+00  0.268E+00  0.268E+00  0.268E+00
 14.950  0.813E+00  0.271E+00  0.271E+00  0.271E+00
 14.960  0.819E+00  0.273E+00  0.273E+00  0.273E+00
 14.970  0.823E+00  0.274E+00  0.274E+00  0.274E+00
 14.980  0.824E+00  0.275E+00  0.275E+00  0.275E+00
 14.990  0.822E+00  0.274E+00  0.274E+00  0.274E+00
 15.000  0.816E+00  0.272E+00  0.272E+00  0.272E+00
 15.010  0.808E+00  0.269E+00  0.269E+00  0.269E+00
 15.020  0.797E+00  0.266E+00  0.266E+00  0.266E+00
 15.030  0.784E+00  0.261E+00  0.261E+00  0.261E+00
 15.040  0.768E+00  0.256E+00  0.256E+00  0.256E+00
 15.050  0.749E+00  0.250E+00  0.250E+00  0.250E+00
 15.060  0.729E+00  0.243E+00  0.243E+00  0.243E+00
 15.070  0.708E+00  0.236E+00  0.236E+00  0.236E+00
 15.080  0.685E+00  0.228E+00  0.228E+00  0.228E+00
 15.090  0.661E+00  0.220E+00  0.220E+00  0.220E+00
 15.100  0.637E+00  0.212E+00  0.212E+00  0.212E+00
 15.110  0.613E+00  0.204E+00  0.204E+00  0.204E+00
 15.120  0.589E+00  0.196E+00  0.196E+00  0.196E+00
 15.130  0.566E+00  0.189E+00  0.189E+00  0.189E+00
 15.140  0.543E+00  0.181E+00  0.181E+00  0.181E+00
 15.150  0.522E+00  0.174E+00  0.174E+00  0.174E+00
 15.160  0.502E+00  0.167E+00  0.167E+00  0.167E+00
 15.170  0.483E+00  0.161E+00  0.161E+00  0.161E+00
 15.180  0.465E+00  0.155E+00  0.155E+00  0.155E+00
 15.190  0.449E+00  0.150E+00  0.150E+00  0.150E+00
 15.200  0.434E+00  0.145E+00  0.145E+00  0.145E+00
 15.210  0.421E+00  0.140E+00  0.140E+00  0.140E+00
 15.220  0.409E+00  0.136E+00  0.136E+00  0.136E+00
 15.230  0.399E+00  0.133E+00  0.133E+00  0.133E+00
 15.240  0.389E+00  0.130E+00  0.130E+00  0.130E+00
 15.250  0.381E+00  0.127E+00  0.127E+00  0.127E+00
 15.260  0.373E+00  0.124E+00  0.124E+00  0.124E+00
 15.270  0.367E+00  0.122E+00  0.122E+00  0.122E+00
 15.280  0.360E+00  0.120E+00  0.120E+00  0.120E+00
 15.290  0.355E+00  0.118E+00  0.118E+00  0.118E+00
 15.300  0.349E+00  0.116E+00  0.116E+00  0.116E+00
 15.310  0.344E+00  0.115E+00  0.115E+00  0.115E+00
 15.320  0.339E+00  0.113E+00  0.113E+00  0.113E+00
 15.330  0.334E+00  0.111E+00  0.111E+00  0.111E+00
 15.340  0.329E+00  0.110E+00  0.110E+00  0.110E+00
 15.350  0.324E+00  0.108E+00  0.108E+00  0.108E+00
 15.360  0.318E+00  0.106E+00  0.106E+00  0.106E+00
 15.370  0.313E+00  0.104E+00  0.104E+00  0.104E+00
 15.380  0.307E+00  0.102E+00  0.102E+00  0.102E+00
 15.390  0.301E+00  0.100E+00  0.100E+00  0.100E+00
 15.400  0.294E+00  0.981E-01  0.981E-01  0.981E-01
 15.410  0.288E+00  0.959E-01  0.959E-01  0.959E-01
 15.420  0.281E+00  0.936E-01  0.936E-01  0.936E-01
 15.430  0.274E+00  0.912E-01  0.912E-01  0.912E-01
 15.440  0.266E+00  0.888E-01  0.888E-01  0.888E-01
 15.450  0.259E+00  0.864E-01  0.864E-01  0.864E-01
 15.460  0.252E+00  0.840E-01  0.840E-01  0.840E-01
 15.470  0.245E+00  0.815E-01  0.815E-01  0.815E-01
 15.480  0.237E+00  0.791E-01  0.791E-01  0.791E-01
 15.490  0.230E+00  0.767E-01  0.767E-01  0.767E-01
 15.500  0.223E+00  0.743E-01  0.743E-01  0.743E-01
 15.510  0.216E+00  0.720E-01  0.720E-01  0.720E-01
 15.520  0.209E+00  0.698E-01  0.698E-01  0.698E-01
 15.530  0.203E+00  0.676E-01  0.676E-01  0.676E-01
 15.540  0.197E+00  0.655E-01  0.655E-01  0.655E-01
 15.550  0.190E+00  0.635E-01  0.635E-01  0.635E-01
 15.560  0.185E+00  0.615E-01  0.615E-01  0.615E-01
 15.570  0.179E+00  0.597E-01  0.597E-01  0.597E-01
 15.580  0.174E+00  0.579E-01  0.579E-01  0.579E-01
 15.590  0.169E+00  0.562E-01  0.562E-01  0.562E-01
 15.600  0.164E+00  0.546E-01  0.546E-01  0.546E-01
 15.610  0.159E+00  0.530E-01  0.530E-01  0.530E-01
 15.620  0.154E+00  0.515E-01  0.515E-01  0.515E-01
 15.630  0.150E+00  0.500E-01  0.500E-01  0.500E-01
 15.640  0.146E+00  0.486E-01  0.486E-01  0.486E-01
 15.650  0.142E+00  0.473E-01  0.473E-01  0.473E-01
 15.660  0.138E+00  0.460E-01  0.460E-01  0.460E-01
 15.670  0.134E+00  0.448E-01  0.448E-01  0.448E-01
 15.680  0.131E+00  0.435E-01  0.435E-01  0.435E-01
 15.690  0.127E+00  0.424E-01  0.424E-01  0.424E-01
 15.700  0.124E+00  0.413E-01  0.413E-01  0.413E-01
 15.710  0.121E+00  0.402E-01  0.402E-01  0.402E-01
 15.720  0.117E+00  0.391E-01  0.391E-01  0.391E-01
 15.730  0.114E+00  0.382E-01  0.382E-01  0.382E-01
 15.740  0.112E+00  0.372E-01  0.372E-01  0.372E-01
 15.750  0.109E+00  0.363E-01  0.363E-01  0.363E-01
 15.760  0.106E+00  0.354E-01  0.354E-01  0.354E-01
 15.770  0.104E+00  0.346E-01  0.346E-01  0.346E-01
 15.780  0.101E+00  0.338E-01  0.338E-01  0.338E-01
 15.790  0.991E-01  0.330E-01  0.330E-01  0.330E-01
 15.800  0.968E-01  0.323E-01  0.323E-01  0.323E-01
 15.810  0.947E-01  0.316E-01  0.316E-01  0.316E-01
 15.820  0.926E-01  0.309E-01  0.309E-01  0.309E-01
 15.830  0.905E-01  0.302E-01  0.302E-01  0.302E-01
 15.840  0.885E-01  0.295E-01  0.295E-01  0.295E-01
 15.850  0.866E-01  0.289E-01  0.289E-01  0.289E-01
 15.860  0.846E-01  0.282E-01  0.282E-01  0.282E-01
 15.870  0.827E-01  0.276E-01  0.276E-01  0.276E-01
 15.880  0.808E-01  0.269E-01  0.269E-01  0.269E-01
 15.890  0.790E-01  0.263E-01  0.263E-01  0.263E-01
 15.900  0.772E-01  0.257E-01  0.257E-01  0.257E-01
 15.910  0.754E-01  0.251E-01  0.251E-01  0.251E-01
 15.920  0.737E-01  0.246E-01  0.246E-01  0.246E-01
 15.930  0.720E-01  0.240E-01  0.240E-01  0.240E-01
 15.940  0.704E-01  0.235E-01  0.235E-01  0.235E-01
 15.950  0.688E-01  0.229E-01  0.229E-01  0.229E-01
 15.960  0.673E-01  0.224E-01  0.224E-01  0.224E-01
 15.970  0.659E-01  0.220E-01  0.220E-01  0.220E-01
 15.980  0.645E-01  0.215E-01  0.215E-01  0.215E-01
 15.990  0.632E-01  0.211E-01  0.211E-01  0.211E-01
 16.000  0.619E-01  0.206E-01  0.206E-01  0.206E-01
 16.010  0.607E-01  0.202E-01  0.202E-01  0.202E-01
 16.020  0.596E-01  0.199E-01  0.199E-01  0.199E-01
 16.030  0.584E-01  0.195E-01  0.195E-01  0.195E-01
 16.040  0.573E-01  0.191E-01  0.191E-01  0.191E-01
 16.050  0.561E-01  0.187E-01  0.187E-01  0.187E-01
 16.060  0.550E-01  0.183E-01  0.183E-01  0.183E-01
 16.070  0.538E-01  0.179E-01  0.179E-01  0.179E-01
 16.080  0.527E-01  0.176E-01  0.176E-01  0.176E-01
 16.090  0.515E-01  0.172E-01  0.172E-01  0.172E-01
 16.100  0.503E-01  0.168E-01  0.168E-01  0.168E-01
 16.110  0.490E-01  0.163E-01  0.163E-01  0.163E-01
 16.120  0.478E-01  0.159E-01  0.159E-01  0.159E-01
 16.130  0.465E-01  0.155E-01  0.155E-01  0.155E-01
 16.140  0.452E-01  0.151E-01  0.151E-01  0.151E-01
 16.150  0.440E-01  0.147E-01  0.147E-01  0.147E-01
 16.160  0.427E-01  0.142E-01  0.142E-01  0.142E-01
 16.170  0.415E-01  0.138E-01  0.138E-01  0.138E-01
 16.180  0.404E-01  0.135E-01  0.135E-01  0.135E-01
 16.190  0.393E-01  0.131E-01  0.131E-01  0.131E-01
 16.200  0.382E-01  0.127E-01  0.127E-01  0.127E-01
 16.210  0.372E-01  0.124E-01  0.124E-01  0.124E-01
 16.220  0.363E-01  0.121E-01  0.121E-01  0.121E-01
 16.230  0.354E-01  0.118E-01  0.118E-01  0.118E-01
 16.240  0.346E-01  0.115E-01  0.115E-01  0.115E-01
 16.250  0.339E-01  0.113E-01  0.113E-01  0.113E-01
 16.260  0.332E-01  0.111E-01  0.111E-01  0.111E-01
 16.270  0.325E-01  0.108E-01  0.108E-01  0.108E-01
 16.280  0.319E-01  0.106E-01  0.106E-01  0.106E-01
 16.290  0.313E-01  0.104E-01  0.104E-01  0.104E-01
 16.300  0.307E-01  0.102E-01  0.102E-01  0.102E-01
 16.310  0.302E-01  0.101E-01  0.101E-01  0.101E-01
 16.320  0.297E-01  0.991E-02  0.991E-02  0.991E-02
 16.330  0.293E-01  0.976E-02  0.976E-02  0.976E-02
 16.340  0.289E-01  0.963E-02  0.963E-02  0.963E-02
 16.350  0.286E-01  0.953E-02  0.953E-02  0.953E-02
 16.360  0.284E-01  0.946E-02  0.946E-02  0.946E-02
 16.370  0.283E-01  0.942E-02  0.942E-02  0.942E-02
 16.380  0.283E-01  0.943E-02  0.943E-02  0.943E-02
 16.390  0.285E-01  0.949E-02  0.949E-02  0.949E-02
 16.400  0.289E-01  0.962E-02  0.962E-02  0.962E-02
 16.410  0.294E-01  0.981E-02  0.981E-02  0.981E-02
 16.420  0.303E-01  0.101E-01  0.101E-01  0.101E-01
 16.430  0.313E-01  0.104E-01  0.104E-01  0.104E-01
 16.440  0.326E-01  0.109E-01  0.109E-01  0.109E-01
 16.450  0.342E-01  0.114E-01  0.114E-01  0.114E-01
 16.460  0.361E-01  0.120E-01  0.120E-01  0.120E-01
 16.470  0.383E-01  0.128E-01  0.128E-01  0.128E-01
 16.480  0.407E-01  0.136E-01  0.136E-01  0.136E-01
 16.490  0.435E-01  0.145E-01  0.145E-01  0.145E-01
 16.500  0.465E-01  0.155E-01  0.155E-01  0.155E-01
 16.510  0.497E-01  0.166E-01  0.166E-01  0.166E-01
 16.520  0.532E-01  0.177E-01  0.177E-01  0.177E-01
 16.530  0.569E-01  0.190E-01  0.190E-01  0.190E-01
 16.540  0.607E-01  0.202E-01  0.202E-01  0.202E-01
 16.550  0.647E-01  0.216E-01  0.216E-01  0.216E-01
 16.560  0.688E-01  0.229E-01  0.229E-01  0.229E-01
 16.570  0.730E-01  0.243E-01  0.243E-01  0.243E-01
 16.580  0.773E-01  0.258E-01  0.258E-01  0.258E-01
 16.590  0.815E-01  0.272E-01  0.272E-01  0.272E-01
 16.600  0.858E-01  0.286E-01  0.286E-01  0.286E-01
 16.610  0.900E-01  0.300E-01  0.300E-01  0.300E-01
 16.620  0.942E-01  0.314E-01  0.314E-01  0.314E-01
 16.630  0.984E-01  0.328E-01  0.328E-01  0.328E-01
 16.640  0.103E+00  0.342E-01  0.342E-01  0.342E-01
 16.650  0.107E+00  0.355E-01  0.355E-01  0.355E-01
 16.660  0.111E+00  0.369E-01  0.369E-01  0.369E-01
 16.670  0.115E+00  0.382E-01  0.382E-01  0.382E-01
 16.680  0.119E+00  0.396E-01  0.396E-01  0.396E-01
 16.690  0.123E+00  0.409E-01  0.409E-01  0.409E-01
 16.700  0.127E+00  0.423E-01  0.423E-01  0.423E-01
 16.710  0.131E+00  0.436E-01  0.436E-01  0.436E-01
 16.720  0.135E+00  0.450E-01  0.450E-01  0.450E-01
 16.730  0.139E+00  0.463E-01  0.463E-01  0.463E-01
 16.740  0.143E+00  0.477E-01  0.477E-01  0.477E-01
 16.750  0.147E+00  0.490E-01  0.490E-01  0.490E-01
 16.760  0.151E+00  0.504E-01  0.504E-01  0.504E-01
 16.770  0.155E+00  0.517E-01  0.517E-01  0.517E-01
 16.780  0.159E+00  0.530E-01  0.530E-01  0.530E-01
 16.790  0.163E+00  0.543E-01  0.543E-01  0.543E-01
 16.800  0.167E+00  0.555E-01  0.555E-01  0.555E-01
 16.810  0.170E+00  0.567E-01  0.567E-01  0.567E-01
 16.820  0.173E+00  0.578E-01  0.578E-01  0.578E-01
 16.830  0.176E+00  0.588E-01  0.588E-01  0.588E-01
 16.840  0.179E+00  0.598E-01  0.598E-01  0.598E-01
 16.850  0.182E+00  0.607E-01  0.607E-01  0.607E-01
 16.860  0.185E+00  0.615E-01  0.615E-01  0.615E-01
 16.870  0.187E+00  0.623E-01  0.623E-01  0.623E-01
 16.880  0.189E+00  0.630E-01  0.630E-01  0.630E-01
 16.890  0.191E+00  0.636E-01  0.636E-01  0.636E-01
 16.900  0.193E+00  0.642E-01  0.642E-01  0.642E-01
 16.910  0.194E+00  0.648E-01  0.648E-01  0.648E-01
 16.920  0.196E+00  0.653E-01  0.653E-01  0.653E-01
 16.930  0.198E+00  0.659E-01  0.659E-01  0.659E-01
 16.940  0.199E+00  0.664E-01  0.664E-01  0.664E-01
 16.950  0.201E+00  0.669E-01  0.669E-01  0.669E-01
 16.960  0.202E+00  0.674E-01  0.674E-01  0.674E-01
 16.970  0.204E+00  0.679E-01  0.679E-01  0.679E-01
 16.980  0.205E+00  0.684E-01  0.684E-01  0.684E-01
 16.990  0.207E+00  0.688E-01  0.688E-01  0.688E-01
 17.000  0.208E+00  0.693E-01  0.693E-01  0.693E-01
 17.010  0.209E+00  0.697E-01  0.697E-01  0.697E-01
 17.020  0.210E+00  0.701E-01  0.701E-01  0.701E-01
 17.030  0.211E+00  0.704E-01  0.704E-01  0.704E-01
 17.040  0.212E+00  0.707E-01  0.707E-01  0.707E-01
 17.050  0.213E+00  0.709E-01  0.709E-01  0.709E-01
 17.060  0.213E+00  0.711E-01  0.711E-01  0.711E-01
 17.070  0.214E+00  0.712E-01  0.712E-01  0.712E-01
 17.080  0.214E+00  0.712E-01  0.712E-01  0.712E-01
 17.090  0.214E+00  0.712E-01  0.712E-01  0.712E-01
 17.100  0.213E+00  0.711E-01  0.711E-01  0.711E-01
 17.110  0.213E+00  0.710E-01  0.710E-01  0.710E-01
 17.120  0.213E+00  0.708E-01  0.708E-01  0.708E-01
 17.130  0.212E+00  0.706E-01  0.706E-01  0.706E-01
 17.140  0.211E+00  0.704E-01  0.704E-01  0.704E-01
 17.150  0.210E+00  0.702E-01  0.702E-01  0.702E-01
 17.160  0.210E+00  0.699E-01  0.699E-01  0.699E-01
 17.170  0.209E+00  0.696E-01  0.696E-01  0.696E-01
 17.180  0.208E+00  0.694E-01  0.694E-01  0.694E-01
 17.190  0.207E+00  0.691E-01  0.691E-01  0.691E-01
 17.200  0.207E+00  0.688E-01  0.688E-01  0.688E-01
 17.210  0.206E+00  0.686E-01  0.686E-01  0.686E-01
 17.220  0.205E+00  0.683E-01  0.683E-01  0.683E-01
 17.230  0.204E+00  0.680E-01  0.680E-01  0.680E-01
 17.240  0.203E+00  0.677E-01  0.677E-01  0.677E-01
 17.250  0.202E+00  0.673E-01  0.673E-01  0.673E-01
 17.260  0.201E+00  0.669E-01  0.669E-01  0.669E-01
 17.270  0.199E+00  0.664E-01  0.664E-01  0.664E-01
 17.280  0.197E+00  0.658E-01  0.658E-01  0.658E-01
 17.290  0.195E+00  0.652E-01  0.652E-01  0.652E-01
 17.300  0.193E+00  0.644E-01  0.644E-01  0.644E-01
 17.310  0.191E+00  0.636E-01  0.636E-01  0.636E-01
 17.320  0.188E+00  0.626E-01  0.626E-01  0.626E-01
 17.330  0.185E+00  0.615E-01  0.615E-01  0.615E-01
 17.340  0.181E+00  0.604E-01  0.604E-01  0.604E-01
 17.350  0.178E+00  0.592E-01  0.592E-01  0.592E-01
 17.360  0.174E+00  0.579E-01  0.579E-01  0.579E-01
 17.370  0.170E+00  0.566E-01  0.566E-01  0.566E-01
 17.380  0.166E+00  0.553E-01  0.553E-01  0.553E-01
 17.390  0.162E+00  0.540E-01  0.540E-01  0.540E-01
 17.400  0.158E+00  0.527E-01  0.527E-01  0.527E-01
 17.410  0.154E+00  0.514E-01  0.514E-01  0.514E-01
 17.420  0.151E+00  0.503E-01  0.503E-01  0.503E-01
 17.430  0.148E+00  0.492E-01  0.492E-01  0.492E-01
 17.440  0.145E+00  0.482E-01  0.482E-01  0.482E-01
 17.450  0.142E+00  0.473E-01  0.473E-01  0.473E-01
 17.460  0.140E+00  0.466E-01  0.466E-01  0.466E-01
 17.470  0.138E+00  0.459E-01  0.459E-01  0.459E-01
 17.480  0.136E+00  0.453E-01  0.453E-01  0.453E-01
 17.490  0.134E+00  0.448E-01  0.448E-01  0.448E-01
 17.500  0.133E+00  0.444E-01  0.444E-01  0.444E-01
 17.510  0.132E+00  0.440E-01  0.440E-01  0.440E-01
 17.520  0.131E+00  0.437E-01  0.437E-01  0.437E-01
 17.530  0.130E+00  0.434E-01  0.434E-01  0.434E-01
 17.540  0.129E+00  0.430E-01  0.430E-01  0.430E-01
 17.550  0.128E+00  0.427E-01  0.427E-01  0.427E-01
 17.560  0.127E+00  0.423E-01  0.423E-01  0.423E-01
 17.570  0.126E+00  0.419E-01  0.419E-01  0.419E-01
 17.580  0.124E+00  0.415E-01  0.415E-01  0.415E-01
 17.590  0.123E+00  0.410E-01  0.410E-01  0.410E-01
 17.600  0.121E+00  0.404E-01  0.404E-01  0.404E-01
 17.610  0.120E+00  0.399E-01  0.399E-01  0.399E-01
 17.620  0.118E+00  0.393E-01  0.393E-01  0.393E-01
 17.630  0.116E+00  0.387E-01  0.387E-01  0.387E-01
 17.640  0.114E+00  0.381E-01  0.381E-01  0.381E-01
 17.650  0.112E+00  0.375E-01  0.375E-01  0.375E-01
 17.660  0.111E+00  0.369E-01  0.369E-01  0.369E-01
 17.670  0.109E+00  0.363E-01  0.363E-01  0.363E-01
 17.680  0.107E+00  0.358E-01  0.358E-01  0.358E-01
 17.690  0.106E+00  0.354E-01  0.354E-01  0.354E-01
 17.700  0.105E+00  0.350E-01  0.350E-01  0.350E-01
 17.710  0.104E+00  0.346E-01  0.346E-01  0.346E-01
 17.720  0.103E+00  0.344E-01  0.344E-01  0.344E-01
 17.730  0.103E+00  0.342E-01  0.342E-01  0.342E-01
 17.740  0.102E+00  0.340E-01  0.340E-01  0.340E-01
 17.750  0.102E+00  0.339E-01  0.339E-01  0.339E-01
 17.760  0.102E+00  0.339E-01  0.339E-01  0.339E-01
 17.770  0.102E+00  0.339E-01  0.339E-01  0.339E-01
 17.780  0.102E+00  0.339E-01  0.339E-01  0.339E-01
 17.790  0.102E+00  0.339E-01  0.339E-01  0.339E-01
 17.800  0.102E+00  0.340E-01  0.340E-01  0.340E-01
 17.810  0.102E+00  0.340E-01  0.340E-01  0.340E-01
 17.820  0.102E+00  0.341E-01  0.341E-01  0.341E-01
 17.830  0.102E+00  0.341E-01  0.341E-01  0.341E-01
 17.840  0.102E+00  0.341E-01  0.341E-01  0.341E-01
 17.850  0.102E+00  0.340E-01  0.340E-01  0.340E-01
 17.860  0.102E+00  0.339E-01  0.339E-01  0.339E-01
 17.870  0.101E+00  0.338E-01  0.338E-01  0.338E-01
 17.880  0.101E+00  0.336E-01  0.336E-01  0.336E-01
 17.890  0.999E-01  0.333E-01  0.333E-01  0.333E-01
 17.900  0.990E-01  0.330E-01  0.330E-01  0.330E-01
 17.910  0.979E-01  0.326E-01  0.326E-01  0.326E-01
 17.920  0.966E-01  0.322E-01  0.322E-01  0.322E-01
 17.930  0.952E-01  0.317E-01  0.317E-01  0.317E-01
 17.940  0.936E-01  0.312E-01  0.312E-01  0.312E-01
 17.950  0.919E-01  0.306E-01  0.306E-01  0.306E-01
 17.960  0.900E-01  0.300E-01  0.300E-01  0.300E-01
 17.970  0.880E-01  0.293E-01  0.293E-01  0.293E-01
 17.980  0.860E-01  0.287E-01  0.287E-01  0.287E-01
 17.990  0.838E-01  0.279E-01  0.279E-01  0.279E-01
 18.000  0.817E-01  0.272E-01  0.272E-01  0.272E-01
 18.010  0.795E-01  0.265E-01  0.265E-01  0.265E-01
 18.020  0.773E-01  0.258E-01  0.258E-01  0.258E-01
 18.030  0.751E-01  0.250E-01  0.250E-01  0.250E-01
 18.040  0.730E-01  0.243E-01  0.243E-01  0.243E-01
 18.050  0.709E-01  0.236E-01  0.236E-01  0.236E-01
 18.060  0.690E-01  0.230E-01  0.230E-01  0.230E-01
 18.070  0.671E-01  0.224E-01  0.224E-01  0.224E-01
 18.080  0.654E-01  0.218E-01  0.218E-01  0.218E-01
 18.090  0.639E-01  0.213E-01  0.213E-01  0.213E-01
 18.100  0.624E-01  0.208E-01  0.208E-01  0.208E-01
 18.110  0.612E-01  0.204E-01  0.204E-01  0.204E-01
 18.120  0.601E-01  0.200E-01  0.200E-01  0.200E-01
 18.130  0.592E-01  0.197E-01  0.197E-01  0.197E-01
 18.140  0.585E-01  0.195E-01  0.195E-01  0.195E-01
 18.150  0.580E-01  0.193E-01  0.193E-01  0.193E-01
 18.160  0.577E-01  0.192E-01  0.192E-01  0.192E-01
 18.170  0.577E-01  0.192E-01  0.192E-01  0.192E-01
 18.180  0.578E-01  0.193E-01  0.193E-01  0.193E-01
 18.190  0.582E-01  0.194E-01  0.194E-01  0.194E-01
 18.200  0.587E-01  0.196E-01  0.196E-01  0.196E-01
 18.210  0.595E-01  0.198E-01  0.198E-01  0.198E-01
 18.220  0.605E-01  0.202E-01  0.202E-01  0.202E-01
 18.230  0.617E-01  0.206E-01  0.206E-01  0.206E-01
 18.240  0.631E-01  0.210E-01  0.210E-01  0.210E-01
 18.250  0.647E-01  0.216E-01  0.216E-01  0.216E-01
 18.260  0.665E-01  0.222E-01  0.222E-01  0.222E-01
 18.270  0.684E-01  0.228E-01  0.228E-01  0.228E-01
 18.280  0.704E-01  0.235E-01  0.235E-01  0.235E-01
 18.290  0.725E-01  0.242E-01  0.242E-01  0.242E-01
 18.300  0.747E-01  0.249E-01  0.249E-01  0.249E-01
 18.310  0.770E-01  0.257E-01  0.257E-01  0.257E-01
 18.320  0.793E-01  0.264E-01  0.264E-01  0.264E-01
 18.330  0.817E-01  0.272E-01  0.272E-01  0.272E-01
 18.340  0.841E-01  0.280E-01  0.280E-01  0.280E-01
 18.350  0.864E-01  0.288E-01  0.288E-01  0.288E-01
 18.360  0.888E-01  0.296E-01  0.296E-01  0.296E-01
 18.370  0.911E-01  0.304E-01  0.304E-01  0.304E-01
 18.380  0.935E-01  0.312E-01  0.312E-01  0.312E-01
 18.390  0.958E-01  0.319E-01  0.319E-01  0.319E-01
 18.400  0.981E-01  0.327E-01  0.327E-01  0.327E-01
 18.410  0.100E+00  0.335E-01  0.335E-01  0.335E-01
 18.420  0.103E+00  0.342E-01  0.342E-01  0.342E-01
 18.430  0.105E+00  0.350E-01  0.350E-01  0.350E-01
 18.440  0.107E+00  0.357E-01  0.357E-01  0.357E-01
 18.450  0.110E+00  0.365E-01  0.365E-01  0.365E-01
 18.460  0.112E+00  0.373E-01  0.373E-01  0.373E-01
 18.470  0.114E+00  0.381E-01  0.381E-01  0.381E-01
 18.480  0.117E+00  0.389E-01  0.389E-01  0.389E-01
 18.490  0.119E+00  0.398E-01  0.398E-01  0.398E-01
 18.500  0.122E+00  0.407E-01  0.407E-01  0.407E-01
 18.510  0.125E+00  0.416E-01  0.416E-01  0.416E-01
 18.520  0.128E+00  0.425E-01  0.425E-01  0.425E-01
 18.530  0.130E+00  0.435E-01  0.435E-01  0.435E-01
 18.540  0.134E+00  0.445E-01  0.445E-01  0.445E-01
 18.550  0.137E+00  0.456E-01  0.456E-01  0.456E-01
 18.560  0.140E+00  0.467E-01  0.467E-01  0.467E-01
 18.570  0.144E+00  0.479E-01  0.479E-01  0.479E-01
 18.580  0.147E+00  0.491E-01  0.491E-01  0.491E-01
 18.590  0.151E+00  0.505E-01  0.505E-01  0.505E-01
 18.600  0.155E+00  0.518E-01  0.518E-01  0.518E-01
 18.610  0.160E+00  0.532E-01  0.532E-01  0.532E-01
 18.620  0.164E+00  0.547E-01  0.547E-01  0.547E-01
 18.630  0.169E+00  0.563E-01  0.563E-01  0.563E-01
 18.640  0.174E+00  0.579E-01  0.579E-01  0.579E-01
 18.650  0.179E+00  0.596E-01  0.596E-01  0.596E-01
 18.660  0.184E+00  0.614E-01  0.614E-01  0.614E-01
 18.670  0.190E+00  0.632E-01  0.632E-01  0.632E-01
 18.680  0.195E+00  0.651E-01  0.651E-01  0.651E-01
 18.690  0.201E+00  0.670E-01  0.670E-01  0.670E-01
 18.700  0.207E+00  0.690E-01  0.690E-01  0.690E-01
 18.710  0.213E+00  0.710E-01  0.710E-01  0.710E-01
 18.720  0.219E+00  0.731E-01  0.731E-01  0.731E-01
 18.730  0.226E+00  0.753E-01  0.753E-01  0.753E-01
 18.740  0.232E+00  0.774E-01  0.774E-01  0.774E-01
 18.750  0.239E+00  0.796E-01  0.796E-01  0.796E-01
 18.760  0.246E+00  0.819E-01  0.819E-01  0.819E-01
 18.770  0.252E+00  0.841E-01  0.841E-01  0.841E-01
 18.780  0.259E+00  0.863E-01  0.863E-01  0.863E-01
 18.790  0.266E+00  0.885E-01  0.885E-01  0.885E-01
 18.800  0.272E+00  0.907E-01  0.907E-01  0.907E-01
 18.810  0.278E+00  0.928E-01  0.928E-01  0.928E-01
 18.820  0.284E+00  0.948E-01  0.948E-01  0.948E-01
 18.830  0.290E+00  0.966E-01  0.966E-01  0.966E-01
 18.840  0.295E+00  0.984E-01  0.984E-01  0.984E-01
 18.850  0.300E+00  0.999E-01  0.999E-01  0.999E-01
 18.860  0.304E+00  0.101E+00  0.101E+00  0.101E+00
 18.870  0.307E+00  0.102E+00  0.102E+00  0.102E+00
 18.880  0.310E+00  0.103E+00  0.103E+00  0.103E+00
 18.890  0.312E+00  0.104E+00  0.104E+00  0.104E+00
 18.900  0.313E+00  0.104E+00  0.104E+00  0.104E+00
 18.910  0.313E+00  0.104E+00  0.104E+00  0.104E+00
 18.920  0.313E+00  0.104E+00  0.104E+00  0.104E+00
 18.930  0.311E+00  0.104E+00  0.104E+00  0.104E+00
 18.940  0.309E+00  0.103E+00  0.103E+00  0.103E+00
 18.950  0.306E+00  0.102E+00  0.102E+00  0.102E+00
 18.960  0.302E+00  0.101E+00  0.101E+00  0.101E+00
 18.970  0.297E+00  0.990E-01  0.990E-01  0.990E-01
 18.980  0.292E+00  0.972E-01  0.972E-01  0.972E-01
 18.990  0.286E+00  0.952E-01  0.952E-01  0.952E-01
 19.000  0.279E+00  0.930E-01  0.930E-01  0.930E-01
 19.010  0.272E+00  0.907E-01  0.907E-01  0.907E-01
 19.020  0.265E+00  0.882E-01  0.882E-01  0.882E-01
 19.030  0.257E+00  0.857E-01  0.857E-01  0.857E-01
 19.040  0.250E+00  0.832E-01  0.832E-01  0.832E-01
 19.050  0.242E+00  0.806E-01  0.806E-01  0.806E-01
 19.060  0.234E+00  0.781E-01  0.781E-01  0.781E-01
 19.070  0.227E+00  0.756E-01  0.756E-01  0.756E-01
 19.080  0.219E+00  0.732E-01  0.732E-01  0.732E-01
 19.090  0.212E+00  0.708E-01  0.708E-01  0.708E-01
 19.100  0.206E+00  0.685E-01  0.685E-01  0.685E-01
 19.110  0.199E+00  0.664E-01  0.664E-01  0.664E-01
 19.120  0.193E+00  0.643E-01  0.643E-01  0.643E-01
 19.130  0.187E+00  0.624E-01  0.624E-01  0.624E-01
 19.140  0.182E+00  0.605E-01  0.605E-01  0.605E-01
 19.150  0.176E+00  0.588E-01  0.588E-01  0.588E-01
 19.160  0.171E+00  0.571E-01  0.571E-01  0.571E-01
 19.170  0.167E+00  0.556E-01  0.556E-01  0.556E-01
 19.180  0.162E+00  0.541E-01  0.541E-01  0.541E-01
 19.190  0.158E+00  0.527E-01  0.527E-01  0.527E-01
 19.200  0.154E+00  0.514E-01  0.514E-01  0.514E-01
 19.210  0.150E+00  0.501E-01  0.501E-01  0.501E-01
 19.220  0.147E+00  0.489E-01  0.489E-01  0.489E-01
 19.230  0.143E+00  0.478E-01  0.478E-01  0.478E-01
 19.240  0.140E+00  0.466E-01  0.466E-01  0.466E-01
 19.250  0.137E+00  0.455E-01  0.455E-01  0.455E-01
 19.260  0.133E+00  0.445E-01  0.445E-01  0.445E-01
 19.270  0.130E+00  0.434E-01  0.434E-01  0.434E-01
 19.280  0.127E+00  0.424E-01  0.424E-01  0.424E-01
 19.290  0.124E+00  0.414E-01  0.414E-01  0.414E-01
 19.300  0.121E+00  0.404E-01  0.404E-01  0.404E-01
 19.310  0.118E+00  0.395E-01  0.395E-01  0.395E-01
 19.320  0.116E+00  0.385E-01  0.385E-01  0.385E-01
 19.330  0.113E+00  0.376E-01  0.376E-01  0.376E-01
 19.340  0.110E+00  0.366E-01  0.366E-01  0.366E-01
 19.350  0.107E+00  0.357E-01  0.357E-01  0.357E-01
 19.360  0.104E+00  0.348E-01  0.348E-01  0.348E-01
 19.370  0.101E+00  0.338E-01  0.338E-01  0.338E-01
 19.380  0.987E-01  0.329E-01  0.329E-01  0.329E-01
 19.390  0.960E-01  0.320E-01  0.320E-01  0.320E-01
 19.400  0.932E-01  0.311E-01  0.311E-01  0.311E-01
 19.410  0.905E-01  0.302E-01  0.302E-01  0.302E-01
 19.420  0.878E-01  0.293E-01  0.293E-01  0.293E-01
 19.430  0.852E-01  0.284E-01  0.284E-01  0.284E-01
 19.440  0.826E-01  0.275E-01  0.275E-01  0.275E-01
 19.450  0.802E-01  0.267E-01  0.267E-01  0.267E-01
 19.460  0.778E-01  0.259E-01  0.259E-01  0.259E-01
 19.470  0.755E-01  0.252E-01  0.252E-01  0.252E-01
 19.480  0.733E-01  0.244E-01  0.244E-01  0.244E-01
 19.490  0.713E-01  0.238E-01  0.238E-01  0.238E-01
 19.500  0.694E-01  0.231E-01  0.231E-01  0.231E-01
 19.510  0.676E-01  0.225E-01  0.225E-01  0.225E-01
 19.520  0.659E-01  0.220E-01  0.220E-01  0.220E-01
 19.530  0.644E-01  0.215E-01  0.215E-01  0.215E-01
 19.540  0.630E-01  0.210E-01  0.210E-01  0.210E-01
 19.550  0.617E-01  0.206E-01  0.206E-01  0.206E-01
 19.560  0.605E-01  0.202E-01  0.202E-01  0.202E-01
 19.570  0.594E-01  0.198E-01  0.198E-01  0.198E-01
 19.580  0.583E-01  0.194E-01  0.194E-01  0.194E-01
 19.590  0.572E-01  0.191E-01  0.191E-01  0.191E-01
 19.600  0.561E-01  0.187E-01  0.187E-01  0.187E-01
 19.610  0.550E-01  0.183E-01  0.183E-01  0.183E-01
 19.620  0.539E-01  0.180E-01  0.180E-01  0.180E-01
 19.630  0.528E-01  0.176E-01  0.176E-01  0.176E-01
 19.640  0.516E-01  0.172E-01  0.172E-01  0.172E-01
 19.650  0.504E-01  0.168E-01  0.168E-01  0.168E-01
 19.660  0.491E-01  0.164E-01  0.164E-01  0.164E-01
 19.670  0.478E-01  0.159E-01  0.159E-01  0.159E-01
 19.680  0.465E-01  0.155E-01  0.155E-01  0.155E-01
 19.690  0.453E-01  0.151E-01  0.151E-01  0.151E-01
 19.700  0.440E-01  0.147E-01  0.147E-01  0.147E-01
 19.710  0.427E-01  0.142E-01  0.142E-01  0.142E-01
 19.720  0.415E-01  0.138E-01  0.138E-01  0.138E-01
 19.730  0.403E-01  0.134E-01  0.134E-01  0.134E-01
 19.740  0.392E-01  0.131E-01  0.131E-01  0.131E-01
 19.750  0.381E-01  0.127E-01  0.127E-01  0.127E-01
 19.760  0.371E-01  0.124E-01  0.124E-01  0.124E-01
 19.770  0.361E-01  0.120E-01  0.120E-01  0.120E-01
 19.780  0.352E-01  0.117E-01  0.117E-01  0.117E-01
 19.790  0.344E-01  0.115E-01  0.115E-01  0.115E-01
 19.800  0.335E-01  0.112E-01  0.112E-01  0.112E-01
 19.810  0.327E-01  0.109E-01  0.109E-01  0.109E-01
 19.820  0.320E-01  0.107E-01  0.107E-01  0.107E-01
 19.830  0.312E-01  0.104E-01  0.104E-01  0.104E-01
 19.840  0.305E-01  0.102E-01  0.102E-01  0.102E-01
 19.850  0.298E-01  0.993E-02  0.993E-02  0.993E-02
 19.860  0.291E-01  0.969E-02  0.969E-02  0.969E-02
 19.870  0.284E-01  0.945E-02  0.945E-02  0.945E-02
 19.880  0.277E-01  0.922E-02  0.922E-02  0.922E-02
 19.890  0.270E-01  0.899E-02  0.899E-02  0.899E-02
 19.900  0.263E-01  0.875E-02  0.875E-02  0.875E-02
 19.910  0.256E-01  0.852E-02  0.852E-02  0.852E-02
 19.920  0.249E-01  0.829E-02  0.829E-02  0.829E-02
 19.930  0.242E-01  0.805E-02  0.805E-02  0.805E-02
 19.940  0.234E-01  0.781E-02  0.781E-02  0.781E-02
 19.950  0.227E-01  0.758E-02  0.758E-02  0.758E-02
 19.960  0.220E-01  0.734E-02  0.734E-02  0.734E-02
 19.970  0.213E-01  0.709E-02  0.709E-02  0.709E-02
 19.980  0.205E-01  0.684E-02  0.684E-02  0.684E-02
 19.990  0.198E-01  0.659E-02  0.659E-02  0.659E-02
 20.000  0.190E-01  0.633E-02  0.633E-02  0.633E-02
 20.010  0.182E-01  0.607E-02  0.607E-02  0.607E-02
 20.020  0.174E-01  0.580E-02  0.580E-02  0.580E-02
 20.030  0.166E-01  0.553E-02  0.553E-02  0.553E-02
 20.040  0.158E-01  0.525E-02  0.525E-02  0.525E-02
 20.050  0.149E-01  0.497E-02  0.497E-02  0.497E-02
 20.060  0.141E-01  0.469E-02  0.469E-02  0.469E-02
 20.070  0.132E-01  0.440E-02  0.440E-02  0.440E-02
 20.080  0.123E-01  0.411E-02  0.411E-02  0.411E-02
 20.090  0.115E-01  0.383E-02  0.383E-02  0.383E-02
 20.100  0.106E-01  0.354E-02  0.354E-02  0.354E-02
 20.110  0.979E-02  0.326E-02  0.326E-02  0.326E-02
 20.120  0.896E-02  0.299E-02  0.299E-02  0.299E-02
 20.130  0.816E-02  0.272E-02  0.272E-02  0.272E-02
 20.140  0.739E-02  0.246E-02  0.246E-02  0.246E-02
 20.150  0.664E-02  0.221E-02  0.221E-02  0.221E-02
 20.160  0.594E-02  0.198E-02  0.198E-02  0.198E-02
 20.170  0.527E-02  0.176E-02  0.176E-02  0.176E-02
 20.180  0.464E-02  0.155E-02  0.155E-02  0.155E-02
 20.190  0.406E-02  0.135E-02  0.135E-02  0.135E-02
 20.200  0.353E-02  0.118E-02  0.118E-02  0.118E-02
 20.210  0.304E-02  0.101E-02  0.101E-02  0.101E-02
 20.220  0.260E-02  0.867E-03  0.867E-03  0.867E-03
 20.230  0.221E-02  0.736E-03  0.736E-03  0.736E-03
 20.240  0.186E-02  0.619E-03  0.619E-03  0.619E-03
 20.250  0.155E-02  0.517E-03  0.517E-03  0.517E-03
 20.260  0.128E-02  0.427E-03  0.427E-03  0.427E-03
 20.270  0.105E-02  0.351E-03  0.351E-03  0.351E-03
 20.280  0.855E-03  0.285E-03  0.285E-03  0.285E-03
 20.290  0.689E-03  0.230E-03  0.230E-03  0.230E-03
 20.300  0.551E-03  0.184E-03  0.184E-03  0.184E-03
 20.310  0.436E-03  0.145E-03  0.145E-03  0.145E-03
 20.320  0.342E-03  0.114E-03  0.114E-03  0.114E-03
 20.330  0.266E-03  0.886E-04  0.886E-04  0.886E-04
 20.340  0.205E-03  0.683E-04  0.683E-04  0.683E-04
 20.350  0.156E-03  0.521E-04  0.521E-04  0.521E-04
 20.360  0.118E-03  0.394E-04  0.394E-04  0.394E-04
 20.370  0.884E-04  0.295E-04  0.295E-04  0.295E-04
 20.380  0.656E-04  0.219E-04  0.219E-04  0.219E-04
 20.390  0.482E-04  0.161E-04  0.161E-04  0.161E-04
 20.400  0.351E-04  0.117E-04  0.117E-04  0.117E-04
 20.410  0.253E-04  0.843E-05  0.843E-05  0.843E-05
 20.420  0.181E-04  0.602E-05  0.602E-05  0.602E-05
 20.430  0.128E-04  0.425E-05  0.425E-05  0.425E-05
 20.440  0.894E-05  0.298E-05  0.298E-05  0.298E-05
 20.450  0.620E-05  0.207E-05  0.207E-05  0.207E-05
 20.460  0.426E-05  0.142E-05  0.142E-05  0.142E-05
 20.470  0.290E-05  0.966E-06  0.966E-06  0.966E-06
 20.480  0.195E-05  0.651E-06  0.651E-06  0.651E-06
 20.490  0.130E-05  0.434E-06  0.434E-06  0.434E-06
 20.500  0.860E-06  0.287E-06  0.287E-06  0.287E-06
 20.510  0.563E-06  0.188E-06  0.188E-06  0.188E-06
 20.520  0.365E-06  0.122E-06  0.122E-06  0.122E-06
 20.530  0.234E-06  0.780E-07  0.780E-07  0.780E-07
 20.540  0.149E-06  0.496E-07  0.496E-07  0.496E-07
 20.550  0.935E-07  0.312E-07  0.312E-07  0.312E-07
