# E (eV)   ldos(E)   pdos(E)   
 -8.284  0.120E-04  0.120E-04
 -8.274  0.190E-04  0.190E-04
 -8.264  0.297E-04  0.297E-04
 -8.254  0.460E-04  0.460E-04
 -8.244  0.706E-04  0.706E-04
 -8.234  0.107E-03  0.107E-03
 -8.224  0.161E-03  0.161E-03
 -8.214  0.239E-03  0.239E-03
 -8.204  0.350E-03  0.350E-03
 -8.194  0.509E-03  0.509E-03
 -8.184  0.732E-03  0.732E-03
 -8.174  0.104E-02  0.104E-02
 -8.164  0.147E-02  0.147E-02
 -8.154  0.204E-02  0.204E-02
 -8.144  0.282E-02  0.282E-02
 -8.134  0.384E-02  0.384E-02
 -8.124  0.518E-02  0.518E-02
 -8.114  0.692E-02  0.692E-02
 -8.104  0.914E-02  0.914E-02
 -8.094  0.119E-01  0.119E-01
 -8.084  0.155E-01  0.155E-01
 -8.074  0.198E-01  0.198E-01
 -8.064  0.250E-01  0.250E-01
 -8.054  0.314E-01  0.314E-01
 -8.044  0.389E-01  0.389E-01
 -8.034  0.477E-01  0.477E-01
 -8.024  0.578E-01  0.578E-01
 -8.014  0.695E-01  0.695E-01
 -8.004  0.825E-01  0.825E-01
 -7.994  0.970E-01  0.970E-01
 -7.984  0.113E+00  0.113E+00
 -7.974  0.130E+00  0.130E+00
 -7.964  0.148E+00  0.148E+00
 -7.954  0.167E+00  0.167E+00
 -7.944  0.186E+00  0.186E+00
 -7.934  0.205E+00  0.205E+00
 -7.924  0.224E+00  0.224E+00
 -7.914  0.242E+00  0.242E+00
 -7.904  0.258E+00  0.258E+00
 -7.894  0.273E+00  0.273E+00
 -7.884  0.286E+00  0.286E+00
 -7.874  0.296E+00  0.296E+00
 -7.864  0.304E+00  0.304E+00
 -7.854  0.308E+00  0.308E+00
 -7.844  0.309E+00  0.309E+00
 -7.834  0.307E+00  0.307E+00
 -7.824  0.302E+00  0.302E+00
 -7.814  0.293E+00  0.293E+00
 -7.804  0.282E+00  0.282E+00
 -7.794  0.269E+00  0.269E+00
 -7.784  0.253E+00  0.253E+00
 -7.774  0.236E+00  0.236E+00
 -7.764  0.218E+00  0.218E+00
 -7.754  0.199E+00  0.199E+00
 -7.744  0.180E+00  0.180E+00
 -7.734  0.161E+00  0.161E+00
 -7.724  0.143E+00  0.143E+00
 -7.714  0.125E+00  0.125E+00
 -7.704  0.108E+00  0.108E+00
 -7.694  0.930E-01  0.930E-01
 -7.684  0.790E-01  0.790E-01
 -7.674  0.665E-01  0.665E-01
 -7.664  0.553E-01  0.553E-01
 -7.654  0.456E-01  0.456E-01
 -7.644  0.372E-01  0.372E-01
 -7.634  0.301E-01  0.301E-01
 -7.624  0.241E-01  0.241E-01
 -7.614  0.191E-01  0.191E-01
 -7.604  0.149E-01  0.149E-01
 -7.594  0.116E-01  0.116E-01
 -7.584  0.893E-02  0.893E-02
 -7.574  0.681E-02  0.681E-02
 -7.564  0.514E-02  0.514E-02
 -7.554  0.384E-02  0.384E-02
 -7.544  0.285E-02  0.285E-02
 -7.534  0.209E-02  0.209E-02
 -7.524  0.152E-02  0.152E-02
 -7.514  0.110E-02  0.110E-02
 -7.504  0.788E-03  0.788E-03
 -7.494  0.560E-03  0.560E-03
 -7.484  0.394E-03  0.394E-03
 -7.474  0.276E-03  0.276E-03
 -7.464  0.191E-03  0.191E-03
 -7.454  0.132E-03  0.132E-03
 -7.444  0.903E-04  0.903E-04
 -7.434  0.614E-04  0.614E-04
 -7.424  0.415E-04  0.415E-04
 -7.414  0.278E-04  0.278E-04
 -7.404  0.186E-04  0.186E-04
 -7.394  0.123E-04  0.123E-04
 -7.384  0.812E-05  0.812E-05
 -7.374  0.533E-05  0.533E-05
 -7.364  0.348E-05  0.348E-05
 -7.354  0.226E-05  0.226E-05
 -7.344  0.146E-05  0.146E-05
 -7.334  0.934E-06  0.934E-06
 -7.324  0.596E-06  0.596E-06
 -7.314  0.378E-06  0.378E-06
 -7.304  0.238E-06  0.238E-06
 -7.294  0.149E-06  0.149E-06
 -7.284  0.930E-07  0.930E-07
 -7.274  0.575E-07  0.575E-07
 -7.264  0.353E-07  0.353E-07
 -7.254  0.215E-07  0.215E-07
 -7.244  0.130E-07  0.130E-07
 -7.234  0.782E-08  0.782E-08
 -7.224  0.466E-08  0.466E-08
 -7.214  0.275E-08  0.275E-08
 -7.204  0.161E-08  0.161E-08
 -7.194  0.936E-09  0.936E-09
 -7.184  0.539E-09  0.539E-09
 -7.174  0.308E-09  0.308E-09
 -7.164  0.174E-09  0.174E-09
 -7.154  0.971E-10  0.971E-10
 -7.144  0.536E-10  0.536E-10
 -7.134  0.294E-10  0.294E-10
 -7.124  0.160E-10  0.160E-10
 -7.114  0.859E-11  0.859E-11
 -7.104  0.458E-11  0.458E-11
 -7.094  0.242E-11  0.242E-11
 -7.084  0.126E-11  0.126E-11
 -7.074  0.656E-12  0.656E-12
 -7.064  0.337E-12  0.337E-12
 -7.054  0.171E-12  0.171E-12
 -7.044  0.854E-13  0.854E-13
 -7.034  0.411E-13  0.411E-13
 -7.024  0.195E-13  0.195E-13
 -7.014  0.937E-14  0.937E-14
 -7.004  0.450E-14  0.450E-14
 -6.994  0.195E-14  0.195E-14
 -6.984  0.600E-15  0.600E-15
 -6.974  0.319E-16  0.319E-16
 -6.964  0.507E-31  0.507E-31
 -6.954  0.000E+00  0.000E+00
 -6.944  0.000E+00  0.000E+00
 -6.934  0.000E+00  0.000E+00
 -6.924  0.000E+00  0.000E+00
 -6.914  0.000E+00  0.000E+00
 -6.904  0.000E+00  0.000E+00
 -6.894  0.000E+00  0.000E+00
 -6.884  0.000E+00  0.000E+00
 -6.874  0.000E+00  0.000E+00
 -6.864  0.000E+00  0.000E+00
 -6.854  0.000E+00  0.000E+00
 -6.844  0.000E+00  0.000E+00
 -6.834  0.000E+00  0.000E+00
 -6.824  0.000E+00  0.000E+00
 -6.814  0.000E+00  0.000E+00
 -6.804  0.000E+00  0.000E+00
 -6.794  0.000E+00  0.000E+00
 -6.784  0.000E+00  0.000E+00
 -6.774  0.000E+00  0.000E+00
 -6.764  0.000E+00  0.000E+00
 -6.754  0.000E+00  0.000E+00
 -6.744  0.000E+00  0.000E+00
 -6.734  0.000E+00  0.000E+00
 -6.724  0.000E+00  0.000E+00
 -6.714  0.000E+00  0.000E+00
 -6.704  0.000E+00  0.000E+00
 -6.694  0.000E+00  0.000E+00
 -6.684  0.000E+00  0.000E+00
 -6.674  0.000E+00  0.000E+00
 -6.664  0.000E+00  0.000E+00
 -6.654  0.000E+00  0.000E+00
 -6.644  0.000E+00  0.000E+00
 -6.634  0.000E+00  0.000E+00
 -6.624  0.000E+00  0.000E+00
 -6.614  0.000E+00  0.000E+00
 -6.604  0.000E+00  0.000E+00
 -6.594  0.000E+00  0.000E+00
 -6.584  0.000E+00  0.000E+00
 -6.574  0.000E+00  0.000E+00
 -6.564  0.000E+00  0.000E+00
 -6.554  0.000E+00  0.000E+00
 -6.544  0.000E+00  0.000E+00
 -6.534  0.000E+00  0.000E+00
 -6.524  0.000E+00  0.000E+00
 -6.514  0.000E+00  0.000E+00
 -6.504  0.000E+00  0.000E+00
 -6.494  0.000E+00  0.000E+00
 -6.484  0.000E+00  0.000E+00
 -6.474  0.000E+00  0.000E+00
 -6.464  0.000E+00  0.000E+00
 -6.454  0.000E+00  0.000E+00
 -6.444  0.000E+00  0.000E+00
 -6.434  0.000E+00  0.000E+00
 -6.424  0.000E+00  0.000E+00
 -6.414  0.000E+00  0.000E+00
 -6.404  0.000E+00  0.000E+00
 -6.394  0.000E+00  0.000E+00
 -6.384  0.000E+00  0.000E+00
 -6.374  0.000E+00  0.000E+00
 -6.364  0.000E+00  0.000E+00
 -6.354  0.000E+00  0.000E+00
 -6.344  0.000E+00  0.000E+00
 -6.334  0.000E+00  0.000E+00
 -6.324  0.000E+00  0.000E+00
 -6.314  0.000E+00  0.000E+00
 -6.304  0.000E+00  0.000E+00
 -6.294  0.000E+00  0.000E+00
 -6.284  0.000E+00  0.000E+00
 -6.274  0.000E+00  0.000E+00
 -6.264  0.000E+00  0.000E+00
 -6.254  0.297E-14  0.297E-14
 -6.244  0.623E-14  0.623E-14
 -6.234  0.129E-13  0.129E-13
 -6.224  0.705E-13  0.705E-13
 -6.214  0.146E-12  0.146E-12
 -6.204  0.299E-12  0.299E-12
 -6.194  0.605E-12  0.605E-12
 -6.184  0.125E-11  0.125E-11
 -6.174  0.248E-11  0.248E-11
 -6.164  0.488E-11  0.488E-11
 -6.154  0.961E-11  0.961E-11
 -6.144  0.185E-10  0.185E-10
 -6.134  0.353E-10  0.353E-10
 -6.124  0.666E-10  0.666E-10
 -6.114  0.124E-09  0.124E-09
 -6.104  0.230E-09  0.230E-09
 -6.094  0.421E-09  0.421E-09
 -6.084  0.762E-09  0.762E-09
 -6.074  0.137E-08  0.137E-08
 -6.064  0.242E-08  0.242E-08
 -6.054  0.425E-08  0.425E-08
 -6.044  0.739E-08  0.739E-08
 -6.034  0.127E-07  0.127E-07
 -6.024  0.216E-07  0.216E-07
 -6.014  0.364E-07  0.364E-07
 -6.004  0.607E-07  0.607E-07
 -5.994  0.100E-06  0.100E-06
 -5.984  0.164E-06  0.164E-06
 -5.974  0.265E-06  0.265E-06
 -5.964  0.424E-06  0.424E-06
 -5.954  0.672E-06  0.672E-06
 -5.944  0.105E-05  0.105E-05
 -5.934  0.164E-05  0.164E-05
 -5.924  0.252E-05  0.252E-05
 -5.914  0.383E-05  0.383E-05
 -5.904  0.577E-05  0.577E-05
 -5.894  0.862E-05  0.862E-05
 -5.884  0.127E-04  0.127E-04
 -5.874  0.186E-04  0.186E-04
 -5.864  0.270E-04  0.270E-04
 -5.854  0.387E-04  0.387E-04
 -5.844  0.549E-04  0.549E-04
 -5.834  0.773E-04  0.773E-04
 -5.824  0.108E-03  0.108E-03
 -5.814  0.148E-03  0.148E-03
 -5.804  0.203E-03  0.203E-03
 -5.794  0.275E-03  0.275E-03
 -5.784  0.368E-03  0.368E-03
 -5.774  0.489E-03  0.489E-03
 -5.764  0.644E-03  0.644E-03
 -5.754  0.839E-03  0.839E-03
 -5.744  0.108E-02  0.108E-02
 -5.734  0.139E-02  0.139E-02
 -5.724  0.176E-02  0.176E-02
 -5.714  0.222E-02  0.222E-02
 -5.704  0.276E-02  0.276E-02
 -5.694  0.341E-02  0.341E-02
 -5.684  0.418E-02  0.418E-02
 -5.674  0.508E-02  0.508E-02
 -5.664  0.612E-02  0.612E-02
 -5.654  0.731E-02  0.731E-02
 -5.644  0.866E-02  0.866E-02
 -5.634  0.102E-01  0.102E-01
 -5.624  0.119E-01  0.119E-01
 -5.614  0.138E-01  0.138E-01
 -5.604  0.158E-01  0.158E-01
 -5.594  0.180E-01  0.180E-01
 -5.584  0.204E-01  0.204E-01
 -5.574  0.230E-01  0.230E-01
 -5.564  0.257E-01  0.257E-01
 -5.554  0.285E-01  0.285E-01
 -5.544  0.315E-01  0.315E-01
 -5.534  0.345E-01  0.345E-01
 -5.524  0.377E-01  0.377E-01
 -5.514  0.408E-01  0.408E-01
 -5.504  0.441E-01  0.441E-01
 -5.494  0.473E-01  0.473E-01
 -5.484  0.505E-01  0.505E-01
 -5.474  0.538E-01  0.538E-01
 -5.464  0.570E-01  0.570E-01
 -5.454  0.601E-01  0.601E-01
 -5.444  0.632E-01  0.632E-01
 -5.434  0.662E-01  0.662E-01
 -5.424  0.691E-01  0.691E-01
 -5.414  0.719E-01  0.719E-01
 -5.404  0.747E-01  0.747E-01
 -5.394  0.774E-01  0.774E-01
 -5.384  0.800E-01  0.800E-01
 -5.374  0.825E-01  0.825E-01
 -5.364  0.849E-01  0.849E-01
 -5.354  0.873E-01  0.873E-01
 -5.344  0.895E-01  0.895E-01
 -5.334  0.917E-01  0.917E-01
 -5.324  0.939E-01  0.939E-01
 -5.314  0.960E-01  0.960E-01
 -5.304  0.980E-01  0.980E-01
 -5.294  0.999E-01  0.999E-01
 -5.284  0.102E+00  0.102E+00
 -5.274  0.104E+00  0.104E+00
 -5.264  0.106E+00  0.106E+00
 -5.254  0.107E+00  0.107E+00
 -5.244  0.109E+00  0.109E+00
 -5.234  0.111E+00  0.111E+00
 -5.224  0.112E+00  0.112E+00
 -5.214  0.114E+00  0.114E+00
 -5.204  0.116E+00  0.116E+00
 -5.194  0.117E+00  0.117E+00
 -5.184  0.119E+00  0.119E+00
 -5.174  0.121E+00  0.121E+00
 -5.164  0.122E+00  0.122E+00
 -5.154  0.124E+00  0.124E+00
 -5.144  0.126E+00  0.126E+00
 -5.134  0.127E+00  0.127E+00
 -5.124  0.129E+00  0.129E+00
 -5.114  0.130E+00  0.130E+00
 -5.104  0.132E+00  0.132E+00
 -5.094  0.133E+00  0.133E+00
 -5.084  0.134E+00  0.134E+00
 -5.074  0.136E+00  0.136E+00
 -5.064  0.137E+00  0.137E+00
 -5.054  0.139E+00  0.139E+00
 -5.044  0.140E+00  0.140E+00
 -5.034  0.141E+00  0.141E+00
 -5.024  0.143E+00  0.143E+00
 -5.014  0.144E+00  0.144E+00
 -5.004  0.146E+00  0.146E+00
 -4.994  0.147E+00  0.147E+00
 -4.984  0.149E+00  0.149E+00
 -4.974  0.150E+00  0.150E+00
 -4.964  0.152E+00  0.152E+00
 -4.954  0.154E+00  0.154E+00
 -4.944  0.155E+00  0.155E+00
 -4.934  0.156E+00  0.156E+00
 -4.924  0.158E+00  0.158E+00
 -4.914  0.159E+00  0.159E+00
 -4.904  0.161E+00  0.161E+00
 -4.894  0.162E+00  0.162E+00
 -4.884  0.163E+00  0.163E+00
 -4.874  0.164E+00  0.164E+00
 -4.864  0.165E+00  0.165E+00
 -4.854  0.167E+00  0.167E+00
 -4.844  0.168E+00  0.168E+00
 -4.834  0.169E+00  0.169E+00
 -4.824  0.171E+00  0.171E+00
 -4.814  0.172E+00  0.172E+00
 -4.804  0.174E+00  0.174E+00
 -4.794  0.175E+00  0.175E+00
 -4.784  0.177E+00  0.177E+00
 -4.774  0.179E+00  0.179E+00
 -4.764  0.181E+00  0.181E+00
 -4.754  0.182E+00  0.182E+00
 -4.744  0.184E+00  0.184E+00
 -4.734  0.186E+00  0.186E+00
 -4.724  0.187E+00  0.187E+00
 -4.714  0.189E+00  0.189E+00
 -4.704  0.190E+00  0.190E+00
 -4.694  0.192E+00  0.192E+00
 -4.684  0.193E+00  0.193E+00
 -4.674  0.194E+00  0.194E+00
 -4.664  0.195E+00  0.195E+00
 -4.654  0.196E+00  0.196E+00
 -4.644  0.198E+00  0.198E+00
 -4.634  0.199E+00  0.199E+00
 -4.624  0.200E+00  0.200E+00
 -4.614  0.201E+00  0.201E+00
 -4.604  0.203E+00  0.203E+00
 -4.594  0.204E+00  0.204E+00
 -4.584  0.206E+00  0.206E+00
 -4.574  0.208E+00  0.208E+00
 -4.564  0.210E+00  0.210E+00
 -4.554  0.212E+00  0.212E+00
 -4.544  0.214E+00  0.214E+00
 -4.534  0.216E+00  0.216E+00
 -4.524  0.218E+00  0.218E+00
 -4.514  0.221E+00  0.221E+00
 -4.504  0.223E+00  0.223E+00
 -4.494  0.225E+00  0.225E+00
 -4.484  0.227E+00  0.227E+00
 -4.474  0.228E+00  0.228E+00
 -4.464  0.230E+00  0.230E+00
 -4.454  0.232E+00  0.232E+00
 -4.444  0.233E+00  0.233E+00
 -4.434  0.234E+00  0.234E+00
 -4.424  0.235E+00  0.235E+00
 -4.414  0.237E+00  0.237E+00
 -4.404  0.238E+00  0.238E+00
 -4.394  0.239E+00  0.239E+00
 -4.384  0.240E+00  0.240E+00
 -4.374  0.242E+00  0.242E+00
 -4.364  0.244E+00  0.244E+00
 -4.354  0.245E+00  0.245E+00
 -4.344  0.247E+00  0.247E+00
 -4.334  0.250E+00  0.250E+00
 -4.324  0.252E+00  0.252E+00
 -4.314  0.255E+00  0.255E+00
 -4.304  0.257E+00  0.257E+00
 -4.294  0.260E+00  0.260E+00
 -4.284  0.263E+00  0.263E+00
 -4.274  0.266E+00  0.266E+00
 -4.264  0.269E+00  0.269E+00
 -4.254  0.272E+00  0.272E+00
 -4.244  0.274E+00  0.274E+00
 -4.234  0.277E+00  0.277E+00
 -4.224  0.279E+00  0.279E+00
 -4.214  0.282E+00  0.282E+00
 -4.204  0.284E+00  0.284E+00
 -4.194  0.286E+00  0.286E+00
 -4.184  0.287E+00  0.287E+00
 -4.174  0.289E+00  0.289E+00
 -4.164  0.290E+00  0.290E+00
 -4.154  0.292E+00  0.292E+00
 -4.144  0.294E+00  0.294E+00
 -4.134  0.295E+00  0.295E+00
 -4.124  0.297E+00  0.297E+00
 -4.114  0.299E+00  0.299E+00
 -4.104  0.302E+00  0.302E+00
 -4.094  0.304E+00  0.304E+00
 -4.084  0.307E+00  0.307E+00
 -4.074  0.311E+00  0.311E+00
 -4.064  0.314E+00  0.314E+00
 -4.054  0.318E+00  0.318E+00
 -4.044  0.322E+00  0.322E+00
 -4.034  0.326E+00  0.326E+00
 -4.024  0.330E+00  0.330E+00
 -4.014  0.335E+00  0.335E+00
 -4.004  0.339E+00  0.339E+00
 -3.994  0.343E+00  0.343E+00
 -3.984  0.347E+00  0.347E+00
 -3.974  0.351E+00  0.351E+00
 -3.964  0.355E+00  0.355E+00
 -3.954  0.358E+00  0.358E+00
 -3.944  0.362E+00  0.362E+00
 -3.934  0.365E+00  0.365E+00
 -3.924  0.368E+00  0.368E+00
 -3.914  0.370E+00  0.370E+00
 -3.904  0.373E+00  0.373E+00
 -3.894  0.376E+00  0.376E+00
 -3.884  0.380E+00  0.380E+00
 -3.874  0.383E+00  0.383E+00
 -3.864  0.387E+00  0.387E+00
 -3.854  0.391E+00  0.391E+00
 -3.844  0.396E+00  0.396E+00
 -3.834  0.401E+00  0.401E+00
 -3.824  0.407E+00  0.407E+00
 -3.814  0.413E+00  0.413E+00
 -3.804  0.420E+00  0.420E+00
 -3.794  0.427E+00  0.427E+00
 -3.784  0.435E+00  0.435E+00
 -3.774  0.443E+00  0.443E+00
 -3.764  0.451E+00  0.451E+00
 -3.754  0.460E+00  0.460E+00
 -3.744  0.468E+00  0.468E+00
 -3.734  0.477E+00  0.477E+00
 -3.724  0.485E+00  0.485E+00
 -3.714  0.494E+00  0.494E+00
 -3.704  0.502E+00  0.502E+00
 -3.694  0.510E+00  0.510E+00
 -3.684  0.518E+00  0.518E+00
 -3.674  0.526E+00  0.526E+00
 -3.664  0.533E+00  0.533E+00
 -3.654  0.541E+00  0.541E+00
 -3.644  0.548E+00  0.548E+00
 -3.634  0.556E+00  0.556E+00
 -3.624  0.563E+00  0.563E+00
 -3.614  0.571E+00  0.571E+00
 -3.604  0.578E+00  0.578E+00
 -3.594  0.586E+00  0.586E+00
 -3.584  0.593E+00  0.593E+00
 -3.574  0.601E+00  0.601E+00
 -3.564  0.608E+00  0.608E+00
 -3.554  0.615E+00  0.615E+00
 -3.544  0.621E+00  0.621E+00
 -3.534  0.628E+00  0.628E+00
 -3.524  0.633E+00  0.633E+00
 -3.514  0.638E+00  0.638E+00
 -3.504  0.643E+00  0.643E+00
 -3.494  0.646E+00  0.646E+00
 -3.484  0.649E+00  0.649E+00
 -3.474  0.652E+00  0.652E+00
 -3.464  0.653E+00  0.653E+00
 -3.454  0.655E+00  0.655E+00
 -3.444  0.655E+00  0.655E+00
 -3.434  0.655E+00  0.655E+00
 -3.424  0.655E+00  0.655E+00
 -3.414  0.655E+00  0.655E+00
 -3.404  0.654E+00  0.654E+00
 -3.394  0.654E+00  0.654E+00
 -3.384  0.653E+00  0.653E+00
 -3.374  0.653E+00  0.653E+00
 -3.364  0.653E+00  0.653E+00
 -3.354  0.653E+00  0.653E+00
 -3.344  0.654E+00  0.654E+00
 -3.334  0.654E+00  0.654E+00
 -3.324  0.655E+00  0.655E+00
 -3.314  0.655E+00  0.655E+00
 -3.304  0.656E+00  0.656E+00
 -3.294  0.657E+00  0.657E+00
 -3.284  0.658E+00  0.658E+00
 -3.274  0.659E+00  0.659E+00
 -3.264  0.659E+00  0.659E+00
 -3.254  0.660E+00  0.660E+00
 -3.244  0.660E+00  0.660E+00
 -3.234  0.661E+00  0.661E+00
 -3.224  0.661E+00  0.661E+00
 -3.214  0.662E+00  0.662E+00
 -3.204  0.662E+00  0.662E+00
 -3.194  0.662E+00  0.662E+00
 -3.184  0.663E+00  0.663E+00
 -3.174  0.663E+00  0.663E+00
 -3.164  0.664E+00  0.664E+00
 -3.154  0.665E+00  0.665E+00
 -3.144  0.666E+00  0.666E+00
 -3.134  0.667E+00  0.667E+00
 -3.124  0.668E+00  0.668E+00
 -3.114  0.670E+00  0.670E+00
 -3.104  0.671E+00  0.671E+00
 -3.094  0.673E+00  0.673E+00
 -3.084  0.675E+00  0.675E+00
 -3.074  0.677E+00  0.677E+00
 -3.064  0.679E+00  0.679E+00
 -3.054  0.682E+00  0.682E+00
 -3.044  0.684E+00  0.684E+00
 -3.034  0.687E+00  0.687E+00
 -3.024  0.690E+00  0.690E+00
 -3.014  0.693E+00  0.693E+00
 -3.004  0.696E+00  0.696E+00
 -2.994  0.699E+00  0.699E+00
 -2.984  0.703E+00  0.703E+00
 -2.974  0.707E+00  0.707E+00
 -2.964  0.711E+00  0.711E+00
 -2.954  0.715E+00  0.715E+00
 -2.944  0.719E+00  0.719E+00
 -2.934  0.724E+00  0.724E+00
 -2.924  0.728E+00  0.728E+00
 -2.914  0.733E+00  0.733E+00
 -2.904  0.737E+00  0.737E+00
 -2.894  0.741E+00  0.741E+00
 -2.884  0.745E+00  0.745E+00
 -2.874  0.748E+00  0.748E+00
 -2.864  0.750E+00  0.750E+00
 -2.854  0.752E+00  0.752E+00
 -2.844  0.752E+00  0.752E+00
 -2.834  0.750E+00  0.750E+00
 -2.824  0.747E+00  0.747E+00
 -2.814  0.742E+00  0.742E+00
 -2.804  0.735E+00  0.735E+00
 -2.794  0.725E+00  0.725E+00
 -2.784  0.713E+00  0.713E+00
 -2.774  0.698E+00  0.698E+00
 -2.764  0.680E+00  0.680E+00
 -2.754  0.659E+00  0.659E+00
 -2.744  0.636E+00  0.636E+00
 -2.734  0.610E+00  0.610E+00
 -2.724  0.582E+00  0.582E+00
 -2.714  0.552E+00  0.552E+00
 -2.704  0.520E+00  0.520E+00
 -2.694  0.487E+00  0.487E+00
 -2.684  0.452E+00  0.452E+00
 -2.674  0.417E+00  0.417E+00
 -2.664  0.382E+00  0.382E+00
 -2.654  0.348E+00  0.348E+00
 -2.644  0.314E+00  0.314E+00
 -2.634  0.281E+00  0.281E+00
 -2.624  0.249E+00  0.249E+00
 -2.614  0.220E+00  0.220E+00
 -2.604  0.192E+00  0.192E+00
 -2.594  0.166E+00  0.166E+00
 -2.584  0.143E+00  0.143E+00
 -2.574  0.122E+00  0.122E+00
 -2.564  0.103E+00  0.103E+00
 -2.554  0.858E-01  0.858E-01
 -2.544  0.712E-01  0.712E-01
 -2.534  0.585E-01  0.585E-01
 -2.524  0.476E-01  0.476E-01
 -2.514  0.384E-01  0.384E-01
 -2.504  0.307E-01  0.307E-01
 -2.494  0.244E-01  0.244E-01
 -2.484  0.191E-01  0.191E-01
 -2.474  0.149E-01  0.149E-01
 -2.464  0.115E-01  0.115E-01
 -2.454  0.874E-02  0.874E-02
 -2.444  0.661E-02  0.661E-02
 -2.434  0.495E-02  0.495E-02
 -2.424  0.367E-02  0.367E-02
 -2.414  0.269E-02  0.269E-02
 -2.404  0.196E-02  0.196E-02
 -2.394  0.141E-02  0.141E-02
 -2.384  0.101E-02  0.101E-02
 -2.374  0.712E-03  0.712E-03
 -2.364  0.498E-03  0.498E-03
 -2.354  0.345E-03  0.345E-03
 -2.344  0.237E-03  0.237E-03
 -2.334  0.161E-03  0.161E-03
 -2.324  0.108E-03  0.108E-03
 -2.314  0.721E-04  0.721E-04
 -2.304  0.475E-04  0.475E-04
 -2.294  0.310E-04  0.310E-04
 -2.284  0.201E-04  0.201E-04
 -2.274  0.128E-04  0.128E-04
 -2.264  0.814E-05  0.814E-05
 -2.254  0.511E-05  0.511E-05
 -2.244  0.317E-05  0.317E-05
 -2.234  0.195E-05  0.195E-05
 -2.224  0.119E-05  0.119E-05
 -2.214  0.716E-06  0.716E-06
 -2.204  0.427E-06  0.427E-06
 -2.194  0.252E-06  0.252E-06
 -2.184  0.147E-06  0.147E-06
 -2.174  0.853E-07  0.853E-07
 -2.164  0.489E-07  0.489E-07
 -2.154  0.277E-07  0.277E-07
 -2.144  0.156E-07  0.156E-07
 -2.134  0.865E-08  0.865E-08
 -2.124  0.476E-08  0.476E-08
 -2.114  0.259E-08  0.259E-08
 -2.104  0.140E-08  0.140E-08
 -2.094  0.744E-09  0.744E-09
 -2.084  0.393E-09  0.393E-09
 -2.074  0.205E-09  0.205E-09
 -2.064  0.106E-09  0.106E-09
 -2.054  0.541E-10  0.541E-10
 -2.044  0.272E-10  0.272E-10
 -2.034  0.136E-10  0.136E-10
 -2.024  0.666E-11  0.666E-11
 -2.014  0.322E-11  0.322E-11
 -2.004  0.143E-11  0.143E-11
 -1.994  0.529E-12  0.529E-12
 -1.984  0.212E-12  0.212E-12
 -1.974  0.734E-13  0.734E-13
 -1.964  0.349E-13  0.349E-13
 -1.954  0.000E+00  0.000E+00
 -1.944  0.000E+00  0.000E+00
 -1.934  0.000E+00  0.000E+00
 -1.924  0.000E+00  0.000E+00
 -1.914  0.000E+00  0.000E+00
 -1.904  0.000E+00  0.000E+00
 -1.894  0.000E+00  0.000E+00
 -1.884  0.000E+00  0.000E+00
 -1.874  0.000E+00  0.000E+00
 -1.864  0.000E+00  0.000E+00
 -1.854  0.000E+00  0.000E+00
 -1.844  0.000E+00  0.000E+00
 -1.834  0.000E+00  0.000E+00
 -1.824  0.000E+00  0.000E+00
 -1.814  0.000E+00  0.000E+00
 -1.804  0.000E+00  0.000E+00
 -1.794  0.000E+00  0.000E+00
 -1.784  0.000E+00  0.000E+00
 -1.774  0.000E+00  0.000E+00
 -1.764  0.000E+00  0.000E+00
 -1.754  0.000E+00  0.000E+00
 -1.744  0.000E+00  0.000E+00
 -1.734  0.000E+00  0.000E+00
 -1.724  0.000E+00  0.000E+00
 -1.714  0.000E+00  0.000E+00
 -1.704  0.000E+00  0.000E+00
 -1.694  0.000E+00  0.000E+00
 -1.684  0.000E+00  0.000E+00
 -1.674  0.000E+00  0.000E+00
 -1.664  0.000E+00  0.000E+00
 -1.654  0.000E+00  0.000E+00
 -1.644  0.000E+00  0.000E+00
 -1.634  0.000E+00  0.000E+00
 -1.624  0.000E+00  0.000E+00
 -1.614  0.000E+00  0.000E+00
 -1.604  0.000E+00  0.000E+00
 -1.594  0.000E+00  0.000E+00
 -1.584  0.000E+00  0.000E+00
 -1.574  0.000E+00  0.000E+00
 -1.564  0.000E+00  0.000E+00
 -1.554  0.000E+00  0.000E+00
 -1.544  0.000E+00  0.000E+00
 -1.534  0.000E+00  0.000E+00
 -1.524  0.000E+00  0.000E+00
 -1.514  0.000E+00  0.000E+00
 -1.504  0.000E+00  0.000E+00
 -1.494  0.000E+00  0.000E+00
 -1.484  0.000E+00  0.000E+00
 -1.474  0.000E+00  0.000E+00
 -1.464  0.000E+00  0.000E+00
 -1.454  0.000E+00  0.000E+00
 -1.444  0.000E+00  0.000E+00
 -1.434  0.000E+00  0.000E+00
 -1.424  0.000E+00  0.000E+00
 -1.414  0.000E+00  0.000E+00
 -1.404  0.000E+00  0.000E+00
 -1.394  0.000E+00  0.000E+00
 -1.384  0.000E+00  0.000E+00
 -1.374  0.000E+00  0.000E+00
 -1.364  0.000E+00  0.000E+00
 -1.354  0.000E+00  0.000E+00
 -1.344  0.000E+00  0.000E+00
 -1.334  0.000E+00  0.000E+00
 -1.324  0.000E+00  0.000E+00
 -1.314  0.000E+00  0.000E+00
 -1.304  0.000E+00  0.000E+00
 -1.294  0.000E+00  0.000E+00
 -1.284  0.000E+00  0.000E+00
 -1.274  0.000E+00  0.000E+00
 -1.264  0.000E+00  0.000E+00
 -1.254  0.000E+00  0.000E+00
 -1.244  0.000E+00  0.000E+00
 -1.234  0.000E+00  0.000E+00
 -1.224  0.000E+00  0.000E+00
 -1.214  0.000E+00  0.000E+00
 -1.204  0.000E+00  0.000E+00
 -1.194  0.000E+00  0.000E+00
 -1.184  0.000E+00  0.000E+00
 -1.174  0.000E+00  0.000E+00
 -1.164  0.000E+00  0.000E+00
 -1.154  0.000E+00  0.000E+00
 -1.144  0.000E+00  0.000E+00
 -1.134  0.000E+00  0.000E+00
 -1.124  0.000E+00  0.000E+00
 -1.114  0.000E+00  0.000E+00
 -1.104  0.000E+00  0.000E+00
 -1.094  0.000E+00  0.000E+00
 -1.084  0.000E+00  0.000E+00
 -1.074  0.000E+00  0.000E+00
 -1.064  0.000E+00  0.000E+00
 -1.054  0.000E+00  0.000E+00
 -1.044  0.000E+00  0.000E+00
 -1.034  0.000E+00  0.000E+00
 -1.024  0.000E+00  0.000E+00
 -1.014  0.000E+00  0.000E+00
 -1.004  0.000E+00  0.000E+00
 -0.994  0.000E+00  0.000E+00
 -0.984  0.000E+00  0.000E+00
 -0.974  0.000E+00  0.000E+00
 -0.964  0.000E+00  0.000E+00
 -0.954  0.000E+00  0.000E+00
 -0.944  0.000E+00  0.000E+00
 -0.934  0.000E+00  0.000E+00
 -0.924  0.000E+00  0.000E+00
 -0.914  0.000E+00  0.000E+00
 -0.904  0.000E+00  0.000E+00
 -0.894  0.000E+00  0.000E+00
 -0.884  0.000E+00  0.000E+00
 -0.874  0.000E+00  0.000E+00
 -0.864  0.000E+00  0.000E+00
 -0.854  0.000E+00  0.000E+00
 -0.844  0.000E+00  0.000E+00
 -0.834  0.000E+00  0.000E+00
 -0.824  0.000E+00  0.000E+00
 -0.814  0.000E+00  0.000E+00
 -0.804  0.000E+00  0.000E+00
 -0.794  0.000E+00  0.000E+00
 -0.784  0.000E+00  0.000E+00
 -0.774  0.000E+00  0.000E+00
 -0.764  0.000E+00  0.000E+00
 -0.754  0.000E+00  0.000E+00
 -0.744  0.000E+00  0.000E+00
 -0.734  0.000E+00  0.000E+00
 -0.724  0.000E+00  0.000E+00
 -0.714  0.000E+00  0.000E+00
 -0.704  0.000E+00  0.000E+00
 -0.694  0.000E+00  0.000E+00
 -0.684  0.000E+00  0.000E+00
 -0.674  0.000E+00  0.000E+00
 -0.664  0.000E+00  0.000E+00
 -0.654  0.000E+00  0.000E+00
 -0.644  0.000E+00  0.000E+00
 -0.634  0.000E+00  0.000E+00
 -0.624  0.000E+00  0.000E+00
 -0.614  0.000E+00  0.000E+00
 -0.604  0.000E+00  0.000E+00
 -0.594  0.205E-27  0.205E-27
 -0.584  0.213E-26  0.213E-26
 -0.574  0.552E-17  0.552E-17
 -0.564  0.116E-16  0.116E-16
 -0.554  0.242E-16  0.242E-16
 -0.544  0.143E-14  0.143E-14
 -0.534  0.305E-14  0.305E-14
 -0.524  0.832E-14  0.832E-14
 -0.514  0.171E-13  0.171E-13
 -0.504  0.356E-13  0.356E-13
 -0.494  0.720E-13  0.720E-13
 -0.484  0.145E-12  0.145E-12
 -0.474  0.287E-12  0.287E-12
 -0.464  0.561E-12  0.561E-12
 -0.454  0.109E-11  0.109E-11
 -0.444  0.208E-11  0.208E-11
 -0.434  0.395E-11  0.395E-11
 -0.424  0.741E-11  0.741E-11
 -0.414  0.138E-10  0.138E-10
 -0.404  0.253E-10  0.253E-10
 -0.394  0.459E-10  0.459E-10
 -0.384  0.826E-10  0.826E-10
 -0.374  0.147E-09  0.147E-09
 -0.364  0.259E-09  0.259E-09
 -0.354  0.452E-09  0.452E-09
 -0.344  0.779E-09  0.779E-09
 -0.334  0.133E-08  0.133E-08
 -0.324  0.225E-08  0.225E-08
 -0.314  0.376E-08  0.376E-08
 -0.304  0.623E-08  0.623E-08
 -0.294  0.102E-07  0.102E-07
 -0.284  0.166E-07  0.166E-07
 -0.274  0.266E-07  0.266E-07
 -0.264  0.423E-07  0.423E-07
 -0.254  0.666E-07  0.666E-07
 -0.244  0.104E-06  0.104E-06
 -0.234  0.160E-06  0.160E-06
 -0.224  0.245E-06  0.245E-06
 -0.214  0.371E-06  0.371E-06
 -0.204  0.555E-06  0.555E-06
 -0.194  0.824E-06  0.824E-06
 -0.184  0.121E-05  0.121E-05
 -0.174  0.177E-05  0.177E-05
 -0.164  0.255E-05  0.255E-05
 -0.154  0.364E-05  0.364E-05
 -0.144  0.516E-05  0.516E-05
 -0.134  0.725E-05  0.725E-05
 -0.124  0.101E-04  0.101E-04
 -0.114  0.139E-04  0.139E-04
 -0.104  0.191E-04  0.191E-04
 -0.094  0.259E-04  0.259E-04
 -0.084  0.349E-04  0.349E-04
 -0.074  0.466E-04  0.466E-04
 -0.064  0.618E-04  0.618E-04
 -0.054  0.813E-04  0.813E-04
 -0.044  0.106E-03  0.106E-03
 -0.034  0.138E-03  0.138E-03
 -0.024  0.178E-03  0.178E-03
 -0.014  0.227E-03  0.227E-03
 -0.004  0.289E-03  0.289E-03
  0.006  0.366E-03  0.366E-03
  0.016  0.460E-03  0.460E-03
  0.026  0.575E-03  0.575E-03
  0.036  0.714E-03  0.714E-03
  0.046  0.883E-03  0.883E-03
  0.056  0.109E-02  0.109E-02
  0.066  0.133E-02  0.133E-02
  0.076  0.161E-02  0.161E-02
  0.086  0.195E-02  0.195E-02
  0.096  0.235E-02  0.235E-02
  0.106  0.282E-02  0.282E-02
  0.116  0.336E-02  0.336E-02
  0.126  0.399E-02  0.399E-02
  0.136  0.471E-02  0.471E-02
  0.146  0.554E-02  0.554E-02
  0.156  0.647E-02  0.647E-02
  0.166  0.753E-02  0.753E-02
  0.176  0.872E-02  0.872E-02
  0.186  0.100E-01  0.100E-01
  0.196  0.115E-01  0.115E-01
  0.206  0.132E-01  0.132E-01
  0.216  0.150E-01  0.150E-01
  0.226  0.169E-01  0.169E-01
  0.236  0.190E-01  0.190E-01
  0.246  0.213E-01  0.213E-01
  0.256  0.238E-01  0.238E-01
  0.266  0.265E-01  0.265E-01
  0.276  0.293E-01  0.293E-01
  0.286  0.322E-01  0.322E-01
  0.296  0.353E-01  0.353E-01
  0.306  0.386E-01  0.386E-01
  0.316  0.419E-01  0.419E-01
  0.326  0.454E-01  0.454E-01
  0.336  0.489E-01  0.489E-01
  0.346  0.524E-01  0.524E-01
  0.356  0.560E-01  0.560E-01
  0.366  0.594E-01  0.594E-01
  0.376  0.629E-01  0.629E-01
  0.386  0.662E-01  0.662E-01
  0.396  0.693E-01  0.693E-01
  0.406  0.723E-01  0.723E-01
  0.416  0.751E-01  0.751E-01
  0.426  0.776E-01  0.776E-01
  0.436  0.798E-01  0.798E-01
  0.446  0.817E-01  0.817E-01
  0.456  0.834E-01  0.834E-01
  0.466  0.847E-01  0.847E-01
  0.476  0.858E-01  0.858E-01
  0.486  0.866E-01  0.866E-01
  0.496  0.871E-01  0.871E-01
  0.506  0.874E-01  0.874E-01
  0.516  0.875E-01  0.875E-01
  0.526  0.874E-01  0.874E-01
  0.536  0.872E-01  0.872E-01
  0.546  0.868E-01  0.868E-01
  0.556  0.863E-01  0.863E-01
  0.566  0.858E-01  0.858E-01
  0.576  0.852E-01  0.852E-01
  0.586  0.846E-01  0.846E-01
  0.596  0.840E-01  0.840E-01
  0.606  0.833E-01  0.833E-01
  0.616  0.827E-01  0.827E-01
  0.626  0.820E-01  0.820E-01
  0.636  0.814E-01  0.814E-01
  0.646  0.808E-01  0.808E-01
  0.656  0.801E-01  0.801E-01
  0.666  0.795E-01  0.795E-01
  0.676  0.789E-01  0.789E-01
  0.686  0.782E-01  0.782E-01
  0.696  0.776E-01  0.776E-01
  0.706  0.770E-01  0.770E-01
  0.716  0.764E-01  0.764E-01
  0.726  0.757E-01  0.757E-01
  0.736  0.751E-01  0.751E-01
  0.746  0.746E-01  0.746E-01
  0.756  0.740E-01  0.740E-01
  0.766  0.735E-01  0.735E-01
  0.776  0.730E-01  0.730E-01
  0.786  0.725E-01  0.725E-01
  0.796  0.721E-01  0.721E-01
  0.806  0.717E-01  0.717E-01
  0.816  0.714E-01  0.714E-01
  0.826  0.711E-01  0.711E-01
  0.836  0.709E-01  0.709E-01
  0.846  0.707E-01  0.707E-01
  0.856  0.705E-01  0.705E-01
  0.866  0.704E-01  0.704E-01
  0.876  0.703E-01  0.703E-01
  0.886  0.702E-01  0.702E-01
  0.896  0.702E-01  0.702E-01
  0.906  0.701E-01  0.701E-01
  0.916  0.700E-01  0.700E-01
  0.926  0.699E-01  0.699E-01
  0.936  0.698E-01  0.698E-01
  0.946  0.696E-01  0.696E-01
  0.956  0.694E-01  0.694E-01
  0.966  0.691E-01  0.691E-01
  0.976  0.687E-01  0.687E-01
  0.986  0.684E-01  0.684E-01
  0.996  0.679E-01  0.679E-01
  1.006  0.674E-01  0.674E-01
  1.016  0.669E-01  0.669E-01
  1.026  0.663E-01  0.663E-01
  1.036  0.658E-01  0.658E-01
  1.046  0.652E-01  0.652E-01
  1.056  0.647E-01  0.647E-01
  1.066  0.641E-01  0.641E-01
  1.076  0.636E-01  0.636E-01
  1.086  0.632E-01  0.632E-01
  1.096  0.629E-01  0.629E-01
  1.106  0.626E-01  0.626E-01
  1.116  0.624E-01  0.624E-01
  1.126  0.623E-01  0.623E-01
  1.136  0.622E-01  0.622E-01
  1.146  0.622E-01  0.622E-01
  1.156  0.623E-01  0.623E-01
  1.166  0.624E-01  0.624E-01
  1.176  0.625E-01  0.625E-01
  1.186  0.626E-01  0.626E-01
  1.196  0.627E-01  0.627E-01
  1.206  0.627E-01  0.627E-01
  1.216  0.627E-01  0.627E-01
  1.226  0.627E-01  0.627E-01
  1.236  0.626E-01  0.626E-01
  1.246  0.624E-01  0.624E-01
  1.256  0.621E-01  0.621E-01
  1.266  0.618E-01  0.618E-01
  1.276  0.614E-01  0.614E-01
  1.286  0.610E-01  0.610E-01
  1.296  0.606E-01  0.606E-01
  1.306  0.602E-01  0.602E-01
  1.316  0.598E-01  0.598E-01
  1.326  0.593E-01  0.593E-01
  1.336  0.589E-01  0.589E-01
  1.346  0.585E-01  0.585E-01
  1.356  0.581E-01  0.581E-01
  1.366  0.577E-01  0.577E-01
  1.376  0.573E-01  0.573E-01
  1.386  0.569E-01  0.569E-01
  1.396  0.565E-01  0.565E-01
  1.406  0.562E-01  0.562E-01
  1.416  0.558E-01  0.558E-01
  1.426  0.554E-01  0.554E-01
  1.436  0.550E-01  0.550E-01
  1.446  0.546E-01  0.546E-01
  1.456  0.542E-01  0.542E-01
  1.466  0.539E-01  0.539E-01
  1.476  0.536E-01  0.536E-01
  1.486  0.534E-01  0.534E-01
  1.496  0.532E-01  0.532E-01
  1.506  0.531E-01  0.531E-01
  1.516  0.531E-01  0.531E-01
  1.526  0.531E-01  0.531E-01
  1.536  0.532E-01  0.532E-01
  1.546  0.533E-01  0.533E-01
  1.556  0.535E-01  0.535E-01
  1.566  0.537E-01  0.537E-01
  1.576  0.539E-01  0.539E-01
  1.586  0.541E-01  0.541E-01
  1.596  0.543E-01  0.543E-01
  1.606  0.544E-01  0.544E-01
  1.616  0.544E-01  0.544E-01
  1.626  0.543E-01  0.543E-01
  1.636  0.542E-01  0.542E-01
  1.646  0.539E-01  0.539E-01
  1.656  0.536E-01  0.536E-01
  1.666  0.532E-01  0.532E-01
  1.676  0.527E-01  0.527E-01
  1.686  0.522E-01  0.522E-01
  1.696  0.516E-01  0.516E-01
  1.706  0.509E-01  0.509E-01
  1.716  0.503E-01  0.503E-01
  1.726  0.496E-01  0.496E-01
  1.736  0.490E-01  0.490E-01
  1.746  0.484E-01  0.484E-01
  1.756  0.479E-01  0.479E-01
  1.766  0.474E-01  0.474E-01
  1.776  0.469E-01  0.469E-01
  1.786  0.465E-01  0.465E-01
  1.796  0.462E-01  0.462E-01
  1.806  0.459E-01  0.459E-01
  1.816  0.457E-01  0.457E-01
  1.826  0.455E-01  0.455E-01
  1.836  0.454E-01  0.454E-01
  1.846  0.453E-01  0.453E-01
  1.856  0.453E-01  0.453E-01
  1.866  0.452E-01  0.452E-01
  1.876  0.452E-01  0.452E-01
  1.886  0.452E-01  0.452E-01
  1.896  0.452E-01  0.452E-01
  1.906  0.452E-01  0.452E-01
  1.916  0.451E-01  0.451E-01
  1.926  0.451E-01  0.451E-01
  1.936  0.451E-01  0.451E-01
  1.946  0.451E-01  0.451E-01
  1.956  0.450E-01  0.450E-01
  1.966  0.450E-01  0.450E-01
  1.976  0.449E-01  0.449E-01
  1.986  0.448E-01  0.448E-01
  1.996  0.448E-01  0.448E-01
  2.006  0.447E-01  0.447E-01
  2.016  0.446E-01  0.446E-01
  2.026  0.444E-01  0.444E-01
  2.036  0.443E-01  0.443E-01
  2.046  0.441E-01  0.441E-01
  2.056  0.440E-01  0.440E-01
  2.066  0.438E-01  0.438E-01
  2.076  0.436E-01  0.436E-01
  2.086  0.434E-01  0.434E-01
  2.096  0.432E-01  0.432E-01
  2.106  0.430E-01  0.430E-01
  2.116  0.427E-01  0.427E-01
  2.126  0.425E-01  0.425E-01
  2.136  0.423E-01  0.423E-01
  2.146  0.420E-01  0.420E-01
  2.156  0.417E-01  0.417E-01
  2.166  0.414E-01  0.414E-01
  2.176  0.411E-01  0.411E-01
  2.186  0.408E-01  0.408E-01
  2.196  0.404E-01  0.404E-01
  2.206  0.400E-01  0.400E-01
  2.216  0.396E-01  0.396E-01
  2.226  0.391E-01  0.391E-01
  2.236  0.386E-01  0.386E-01
  2.246  0.380E-01  0.380E-01
  2.256  0.375E-01  0.375E-01
  2.266  0.369E-01  0.369E-01
  2.276  0.363E-01  0.363E-01
  2.286  0.357E-01  0.357E-01
  2.296  0.352E-01  0.352E-01
  2.306  0.347E-01  0.347E-01
  2.316  0.343E-01  0.343E-01
  2.326  0.339E-01  0.339E-01
  2.336  0.337E-01  0.337E-01
  2.346  0.335E-01  0.335E-01
  2.356  0.335E-01  0.335E-01
  2.366  0.335E-01  0.335E-01
  2.376  0.337E-01  0.337E-01
  2.386  0.340E-01  0.340E-01
  2.396  0.343E-01  0.343E-01
  2.406  0.348E-01  0.348E-01
  2.416  0.353E-01  0.353E-01
  2.426  0.358E-01  0.358E-01
  2.436  0.363E-01  0.363E-01
  2.446  0.368E-01  0.368E-01
  2.456  0.373E-01  0.373E-01
  2.466  0.377E-01  0.377E-01
  2.476  0.380E-01  0.380E-01
  2.486  0.383E-01  0.383E-01
  2.496  0.384E-01  0.384E-01
  2.506  0.384E-01  0.384E-01
  2.516  0.383E-01  0.383E-01
  2.526  0.380E-01  0.380E-01
  2.536  0.377E-01  0.377E-01
  2.546  0.372E-01  0.372E-01
  2.556  0.366E-01  0.366E-01
  2.566  0.360E-01  0.360E-01
  2.576  0.353E-01  0.353E-01
  2.586  0.346E-01  0.346E-01
  2.596  0.338E-01  0.338E-01
  2.606  0.330E-01  0.330E-01
  2.616  0.323E-01  0.323E-01
  2.626  0.316E-01  0.316E-01
  2.636  0.309E-01  0.309E-01
  2.646  0.303E-01  0.303E-01
  2.656  0.298E-01  0.298E-01
  2.666  0.294E-01  0.294E-01
  2.676  0.290E-01  0.290E-01
  2.686  0.287E-01  0.287E-01
  2.696  0.285E-01  0.285E-01
  2.706  0.283E-01  0.283E-01
  2.716  0.282E-01  0.282E-01
  2.726  0.282E-01  0.282E-01
  2.736  0.281E-01  0.281E-01
  2.746  0.281E-01  0.281E-01
  2.756  0.281E-01  0.281E-01
  2.766  0.281E-01  0.281E-01
  2.776  0.280E-01  0.280E-01
  2.786  0.280E-01  0.280E-01
  2.796  0.280E-01  0.280E-01
  2.806  0.279E-01  0.279E-01
  2.816  0.279E-01  0.279E-01
  2.826  0.279E-01  0.279E-01
  2.836  0.279E-01  0.279E-01
  2.846  0.280E-01  0.280E-01
  2.856  0.281E-01  0.281E-01
  2.866  0.283E-01  0.283E-01
  2.876  0.286E-01  0.286E-01
  2.886  0.289E-01  0.289E-01
  2.896  0.293E-01  0.293E-01
  2.906  0.298E-01  0.298E-01
  2.916  0.303E-01  0.303E-01
  2.926  0.309E-01  0.309E-01
  2.936  0.315E-01  0.315E-01
  2.946  0.322E-01  0.322E-01
  2.956  0.328E-01  0.328E-01
  2.966  0.334E-01  0.334E-01
  2.976  0.340E-01  0.340E-01
  2.986  0.345E-01  0.345E-01
  2.996  0.350E-01  0.350E-01
  3.006  0.354E-01  0.354E-01
  3.016  0.357E-01  0.357E-01
  3.026  0.359E-01  0.359E-01
  3.036  0.360E-01  0.360E-01
  3.046  0.360E-01  0.360E-01
  3.056  0.359E-01  0.359E-01
  3.066  0.358E-01  0.358E-01
  3.076  0.356E-01  0.356E-01
  3.086  0.353E-01  0.353E-01
  3.096  0.350E-01  0.350E-01
  3.106  0.347E-01  0.347E-01
  3.116  0.343E-01  0.343E-01
  3.126  0.339E-01  0.339E-01
  3.136  0.335E-01  0.335E-01
  3.146  0.331E-01  0.331E-01
  3.156  0.327E-01  0.327E-01
  3.166  0.324E-01  0.324E-01
  3.176  0.320E-01  0.320E-01
  3.186  0.317E-01  0.317E-01
  3.196  0.314E-01  0.314E-01
  3.206  0.311E-01  0.311E-01
  3.216  0.309E-01  0.309E-01
  3.226  0.307E-01  0.307E-01
  3.236  0.306E-01  0.306E-01
  3.246  0.305E-01  0.305E-01
  3.256  0.304E-01  0.304E-01
  3.266  0.305E-01  0.305E-01
  3.276  0.305E-01  0.305E-01
  3.286  0.307E-01  0.307E-01
  3.296  0.309E-01  0.309E-01
  3.306  0.311E-01  0.311E-01
  3.316  0.314E-01  0.314E-01
  3.326  0.318E-01  0.318E-01
  3.336  0.322E-01  0.322E-01
  3.346  0.327E-01  0.327E-01
  3.356  0.331E-01  0.331E-01
  3.366  0.336E-01  0.336E-01
  3.376  0.341E-01  0.341E-01
  3.386  0.346E-01  0.346E-01
  3.396  0.350E-01  0.350E-01
  3.406  0.354E-01  0.354E-01
  3.416  0.358E-01  0.358E-01
  3.426  0.361E-01  0.361E-01
  3.436  0.363E-01  0.363E-01
  3.446  0.365E-01  0.365E-01
  3.456  0.366E-01  0.366E-01
  3.466  0.366E-01  0.366E-01
  3.476  0.366E-01  0.366E-01
  3.486  0.365E-01  0.365E-01
  3.496  0.364E-01  0.364E-01
  3.506  0.362E-01  0.362E-01
  3.516  0.360E-01  0.360E-01
  3.526  0.358E-01  0.358E-01
  3.536  0.355E-01  0.355E-01
  3.546  0.353E-01  0.353E-01
  3.556  0.351E-01  0.351E-01
  3.566  0.348E-01  0.348E-01
  3.576  0.346E-01  0.346E-01
  3.586  0.344E-01  0.344E-01
  3.596  0.342E-01  0.342E-01
  3.606  0.340E-01  0.340E-01
  3.616  0.339E-01  0.339E-01
  3.626  0.337E-01  0.337E-01
  3.636  0.336E-01  0.336E-01
  3.646  0.335E-01  0.335E-01
  3.656  0.334E-01  0.334E-01
  3.666  0.333E-01  0.333E-01
  3.676  0.333E-01  0.333E-01
  3.686  0.332E-01  0.332E-01
  3.696  0.331E-01  0.331E-01
  3.706  0.330E-01  0.330E-01
  3.716  0.329E-01  0.329E-01
  3.726  0.328E-01  0.328E-01
  3.736  0.327E-01  0.327E-01
  3.746  0.325E-01  0.325E-01
  3.756  0.323E-01  0.323E-01
  3.766  0.320E-01  0.320E-01
  3.776  0.317E-01  0.317E-01
  3.786  0.314E-01  0.314E-01
  3.796  0.311E-01  0.311E-01
  3.806  0.307E-01  0.307E-01
  3.816  0.303E-01  0.303E-01
  3.826  0.299E-01  0.299E-01
  3.836  0.295E-01  0.295E-01
  3.846  0.291E-01  0.291E-01
  3.856  0.288E-01  0.288E-01
  3.866  0.285E-01  0.285E-01
  3.876  0.283E-01  0.283E-01
  3.886  0.282E-01  0.282E-01
  3.896  0.281E-01  0.281E-01
  3.906  0.281E-01  0.281E-01
  3.916  0.281E-01  0.281E-01
  3.926  0.283E-01  0.283E-01
  3.936  0.285E-01  0.285E-01
  3.946  0.287E-01  0.287E-01
  3.956  0.290E-01  0.290E-01
  3.966  0.294E-01  0.294E-01
  3.976  0.298E-01  0.298E-01
  3.986  0.301E-01  0.301E-01
  3.996  0.305E-01  0.305E-01
  4.006  0.309E-01  0.309E-01
  4.016  0.313E-01  0.313E-01
  4.026  0.317E-01  0.317E-01
  4.036  0.320E-01  0.320E-01
  4.046  0.322E-01  0.322E-01
  4.056  0.325E-01  0.325E-01
  4.066  0.327E-01  0.327E-01
  4.076  0.328E-01  0.328E-01
  4.086  0.329E-01  0.329E-01
  4.096  0.329E-01  0.329E-01
  4.106  0.328E-01  0.328E-01
  4.116  0.328E-01  0.328E-01
  4.126  0.326E-01  0.326E-01
  4.136  0.324E-01  0.324E-01
  4.146  0.322E-01  0.322E-01
  4.156  0.319E-01  0.319E-01
  4.166  0.316E-01  0.316E-01
  4.176  0.312E-01  0.312E-01
  4.186  0.308E-01  0.308E-01
  4.196  0.304E-01  0.304E-01
  4.206  0.299E-01  0.299E-01
  4.216  0.294E-01  0.294E-01
  4.226  0.289E-01  0.289E-01
  4.236  0.284E-01  0.284E-01
  4.246  0.278E-01  0.278E-01
  4.256  0.273E-01  0.273E-01
  4.266  0.268E-01  0.268E-01
  4.276  0.263E-01  0.263E-01
  4.286  0.258E-01  0.258E-01
  4.296  0.253E-01  0.253E-01
  4.306  0.248E-01  0.248E-01
  4.316  0.244E-01  0.244E-01
  4.326  0.241E-01  0.241E-01
  4.336  0.237E-01  0.237E-01
  4.346  0.234E-01  0.234E-01
  4.356  0.232E-01  0.232E-01
  4.366  0.230E-01  0.230E-01
  4.376  0.228E-01  0.228E-01
  4.386  0.227E-01  0.227E-01
  4.396  0.226E-01  0.226E-01
  4.406  0.225E-01  0.225E-01
  4.416  0.225E-01  0.225E-01
  4.426  0.225E-01  0.225E-01
  4.436  0.224E-01  0.224E-01
  4.446  0.224E-01  0.224E-01
  4.456  0.224E-01  0.224E-01
  4.466  0.224E-01  0.224E-01
  4.476  0.224E-01  0.224E-01
  4.486  0.224E-01  0.224E-01
  4.496  0.224E-01  0.224E-01
  4.506  0.225E-01  0.225E-01
  4.516  0.225E-01  0.225E-01
  4.526  0.226E-01  0.226E-01
  4.536  0.226E-01  0.226E-01
  4.546  0.227E-01  0.227E-01
  4.556  0.229E-01  0.229E-01
  4.566  0.231E-01  0.231E-01
  4.576  0.233E-01  0.233E-01
  4.586  0.235E-01  0.235E-01
  4.596  0.237E-01  0.237E-01
  4.606  0.240E-01  0.240E-01
  4.616  0.243E-01  0.243E-01
  4.626  0.246E-01  0.246E-01
  4.636  0.248E-01  0.248E-01
  4.646  0.251E-01  0.251E-01
  4.656  0.252E-01  0.252E-01
  4.666  0.254E-01  0.254E-01
  4.676  0.255E-01  0.255E-01
  4.686  0.255E-01  0.255E-01
  4.696  0.254E-01  0.254E-01
  4.706  0.252E-01  0.252E-01
  4.716  0.250E-01  0.250E-01
  4.726  0.247E-01  0.247E-01
  4.736  0.243E-01  0.243E-01
  4.746  0.239E-01  0.239E-01
  4.756  0.234E-01  0.234E-01
  4.766  0.228E-01  0.228E-01
  4.776  0.222E-01  0.222E-01
  4.786  0.216E-01  0.216E-01
  4.796  0.210E-01  0.210E-01
  4.806  0.204E-01  0.204E-01
  4.816  0.197E-01  0.197E-01
  4.826  0.191E-01  0.191E-01
  4.836  0.185E-01  0.185E-01
  4.846  0.180E-01  0.180E-01
  4.856  0.175E-01  0.175E-01
  4.866  0.170E-01  0.170E-01
  4.876  0.166E-01  0.166E-01
  4.886  0.162E-01  0.162E-01
  4.896  0.158E-01  0.158E-01
  4.906  0.155E-01  0.155E-01
  4.916  0.153E-01  0.153E-01
  4.926  0.151E-01  0.151E-01
  4.936  0.149E-01  0.149E-01
  4.946  0.148E-01  0.148E-01
  4.956  0.147E-01  0.147E-01
  4.966  0.147E-01  0.147E-01
  4.976  0.147E-01  0.147E-01
  4.986  0.147E-01  0.147E-01
  4.996  0.147E-01  0.147E-01
  5.006  0.148E-01  0.148E-01
  5.016  0.149E-01  0.149E-01
  5.026  0.150E-01  0.150E-01
  5.036  0.152E-01  0.152E-01
  5.046  0.153E-01  0.153E-01
  5.056  0.155E-01  0.155E-01
  5.066  0.156E-01  0.156E-01
  5.076  0.158E-01  0.158E-01
  5.086  0.159E-01  0.159E-01
  5.096  0.160E-01  0.160E-01
  5.106  0.161E-01  0.161E-01
  5.116  0.162E-01  0.162E-01
  5.126  0.162E-01  0.162E-01
  5.136  0.162E-01  0.162E-01
  5.146  0.162E-01  0.162E-01
  5.156  0.162E-01  0.162E-01
  5.166  0.161E-01  0.161E-01
  5.176  0.160E-01  0.160E-01
  5.186  0.158E-01  0.158E-01
  5.196  0.157E-01  0.157E-01
  5.206  0.155E-01  0.155E-01
  5.216  0.153E-01  0.153E-01
  5.226  0.151E-01  0.151E-01
  5.236  0.150E-01  0.150E-01
  5.246  0.148E-01  0.148E-01
  5.256  0.146E-01  0.146E-01
  5.266  0.144E-01  0.144E-01
  5.276  0.142E-01  0.142E-01
  5.286  0.140E-01  0.140E-01
  5.296  0.139E-01  0.139E-01
  5.306  0.137E-01  0.137E-01
  5.316  0.136E-01  0.136E-01
  5.326  0.134E-01  0.134E-01
  5.336  0.132E-01  0.132E-01
  5.346  0.131E-01  0.131E-01
  5.356  0.129E-01  0.129E-01
  5.366  0.127E-01  0.127E-01
  5.376  0.125E-01  0.125E-01
  5.386  0.122E-01  0.122E-01
  5.396  0.120E-01  0.120E-01
  5.406  0.117E-01  0.117E-01
  5.416  0.114E-01  0.114E-01
  5.426  0.111E-01  0.111E-01
  5.436  0.108E-01  0.108E-01
  5.446  0.104E-01  0.104E-01
  5.456  0.101E-01  0.101E-01
  5.466  0.978E-02  0.978E-02
  5.476  0.945E-02  0.945E-02
  5.486  0.914E-02  0.914E-02
  5.496  0.884E-02  0.884E-02
  5.506  0.857E-02  0.857E-02
  5.516  0.831E-02  0.831E-02
  5.526  0.808E-02  0.808E-02
  5.536  0.788E-02  0.788E-02
  5.546  0.770E-02  0.770E-02
  5.556  0.755E-02  0.755E-02
  5.566  0.743E-02  0.743E-02
  5.576  0.733E-02  0.733E-02
  5.586  0.725E-02  0.725E-02
  5.596  0.718E-02  0.718E-02
  5.606  0.714E-02  0.714E-02
  5.616  0.710E-02  0.710E-02
  5.626  0.708E-02  0.708E-02
  5.636  0.706E-02  0.706E-02
  5.646  0.704E-02  0.704E-02
  5.656  0.703E-02  0.703E-02
  5.666  0.702E-02  0.702E-02
  5.676  0.700E-02  0.700E-02
  5.686  0.699E-02  0.699E-02
  5.696  0.697E-02  0.697E-02
  5.706  0.695E-02  0.695E-02
  5.716  0.693E-02  0.693E-02
  5.726  0.691E-02  0.691E-02
  5.736  0.688E-02  0.688E-02
  5.746  0.685E-02  0.685E-02
  5.756  0.682E-02  0.682E-02
  5.766  0.678E-02  0.678E-02
  5.776  0.673E-02  0.673E-02
  5.786  0.668E-02  0.668E-02
  5.796  0.662E-02  0.662E-02
  5.806  0.655E-02  0.655E-02
  5.816  0.647E-02  0.647E-02
  5.826  0.638E-02  0.638E-02
  5.836  0.629E-02  0.629E-02
  5.846  0.618E-02  0.618E-02
  5.856  0.607E-02  0.607E-02
  5.866  0.596E-02  0.596E-02
  5.876  0.584E-02  0.584E-02
  5.886  0.571E-02  0.571E-02
  5.896  0.558E-02  0.558E-02
  5.906  0.545E-02  0.545E-02
  5.916  0.531E-02  0.531E-02
  5.926  0.518E-02  0.518E-02
  5.936  0.504E-02  0.504E-02
  5.946  0.490E-02  0.490E-02
  5.956  0.477E-02  0.477E-02
  5.966  0.463E-02  0.463E-02
  5.976  0.449E-02  0.449E-02
  5.986  0.435E-02  0.435E-02
  5.996  0.422E-02  0.422E-02
  6.006  0.408E-02  0.408E-02
  6.016  0.394E-02  0.394E-02
  6.026  0.379E-02  0.379E-02
  6.036  0.365E-02  0.365E-02
  6.046  0.351E-02  0.351E-02
  6.056  0.337E-02  0.337E-02
  6.066  0.324E-02  0.324E-02
  6.076  0.310E-02  0.310E-02
  6.086  0.297E-02  0.297E-02
  6.096  0.284E-02  0.284E-02
  6.106  0.272E-02  0.272E-02
  6.116  0.260E-02  0.260E-02
  6.126  0.249E-02  0.249E-02
  6.136  0.238E-02  0.238E-02
  6.146  0.229E-02  0.229E-02
  6.156  0.220E-02  0.220E-02
  6.166  0.211E-02  0.211E-02
  6.176  0.204E-02  0.204E-02
  6.186  0.197E-02  0.197E-02
  6.196  0.191E-02  0.191E-02
  6.206  0.186E-02  0.186E-02
  6.216  0.182E-02  0.182E-02
  6.226  0.178E-02  0.178E-02
  6.236  0.175E-02  0.175E-02
  6.246  0.173E-02  0.173E-02
  6.256  0.171E-02  0.171E-02
  6.266  0.170E-02  0.170E-02
  6.276  0.169E-02  0.169E-02
  6.286  0.169E-02  0.169E-02
  6.296  0.169E-02  0.169E-02
  6.306  0.168E-02  0.168E-02
  6.316  0.168E-02  0.168E-02
  6.326  0.167E-02  0.167E-02
  6.336  0.166E-02  0.166E-02
  6.346  0.165E-02  0.165E-02
  6.356  0.163E-02  0.163E-02
  6.366  0.161E-02  0.161E-02
  6.376  0.157E-02  0.157E-02
  6.386  0.154E-02  0.154E-02
  6.396  0.149E-02  0.149E-02
  6.406  0.144E-02  0.144E-02
  6.416  0.138E-02  0.138E-02
  6.426  0.132E-02  0.132E-02
  6.436  0.126E-02  0.126E-02
  6.446  0.119E-02  0.119E-02
  6.456  0.112E-02  0.112E-02
  6.466  0.105E-02  0.105E-02
  6.476  0.976E-03  0.976E-03
  6.486  0.904E-03  0.904E-03
  6.496  0.834E-03  0.834E-03
  6.506  0.766E-03  0.766E-03
  6.516  0.700E-03  0.700E-03
  6.526  0.636E-03  0.636E-03
  6.536  0.576E-03  0.576E-03
  6.546  0.519E-03  0.519E-03
  6.556  0.466E-03  0.466E-03
  6.566  0.416E-03  0.416E-03
  6.576  0.369E-03  0.369E-03
  6.586  0.327E-03  0.327E-03
  6.596  0.287E-03  0.287E-03
  6.606  0.251E-03  0.251E-03
  6.616  0.219E-03  0.219E-03
  6.626  0.189E-03  0.189E-03
  6.636  0.163E-03  0.163E-03
  6.646  0.139E-03  0.139E-03
  6.656  0.118E-03  0.118E-03
  6.666  0.996E-04  0.996E-04
  6.676  0.834E-04  0.834E-04
  6.686  0.694E-04  0.694E-04
  6.696  0.572E-04  0.572E-04
  6.706  0.469E-04  0.469E-04
  6.716  0.381E-04  0.381E-04
  6.726  0.307E-04  0.307E-04
  6.736  0.245E-04  0.245E-04
  6.746  0.194E-04  0.194E-04
  6.756  0.152E-04  0.152E-04
  6.766  0.119E-04  0.119E-04
  6.776  0.916E-05  0.916E-05
  6.786  0.700E-05  0.700E-05
  6.796  0.530E-05  0.530E-05
  6.806  0.398E-05  0.398E-05
  6.816  0.296E-05  0.296E-05
  6.826  0.218E-05  0.218E-05
  6.836  0.159E-05  0.159E-05
  6.846  0.115E-05  0.115E-05
  6.856  0.819E-06  0.819E-06
  6.866  0.580E-06  0.580E-06
  6.876  0.407E-06  0.407E-06
  6.886  0.282E-06  0.282E-06
  6.896  0.194E-06  0.194E-06
  6.906  0.132E-06  0.132E-06
  6.916  0.887E-07  0.887E-07
  6.926  0.591E-07  0.591E-07
  6.936  0.390E-07  0.390E-07
  6.946  0.255E-07  0.255E-07
  6.956  0.164E-07  0.164E-07
  6.966  0.105E-07  0.105E-07
  6.976  0.666E-08  0.666E-08
  6.986  0.417E-08  0.417E-08
  6.996  0.258E-08  0.258E-08
  7.006  0.158E-08  0.158E-08
  7.016  0.962E-09  0.962E-09
  7.026  0.578E-09  0.578E-09
  7.036  0.343E-09  0.343E-09
  7.046  0.202E-09  0.202E-09
  7.056  0.118E-09  0.118E-09
  7.066  0.677E-10  0.677E-10
  7.076  0.386E-10  0.386E-10
  7.086  0.217E-10  0.217E-10
  7.096  0.121E-10  0.121E-10
  7.106  0.669E-11  0.669E-11
  7.116  0.366E-11  0.366E-11
  7.126  0.198E-11  0.198E-11
  7.136  0.106E-11  0.106E-11
  7.146  0.558E-12  0.558E-12
  7.156  0.292E-12  0.292E-12
  7.166  0.151E-12  0.151E-12
  7.176  0.773E-13  0.773E-13
  7.186  0.392E-13  0.392E-13
  7.196  0.197E-13  0.197E-13
  7.206  0.975E-14  0.975E-14
  7.216  0.459E-14  0.459E-14
  7.226  0.224E-14  0.224E-14
  7.236  0.108E-14  0.108E-14
  7.246  0.513E-15  0.513E-15
  7.256  0.311E-22  0.311E-22
  7.266  0.170E-22  0.170E-22
  7.276  0.919E-23  0.919E-23
  7.286  0.491E-23  0.491E-23
  7.296  0.260E-23  0.260E-23
  7.306  0.137E-23  0.137E-23
  7.316  0.675E-24  0.675E-24
  7.326  0.349E-24  0.349E-24
  7.336  0.178E-24  0.178E-24
  7.346  0.901E-25  0.901E-25
  7.356  0.451E-25  0.451E-25
  7.366  0.223E-25  0.223E-25
  7.376  0.104E-25  0.104E-25
  7.386  0.504E-26  0.504E-26
  7.396  0.242E-26  0.242E-26
  7.406  0.115E-26  0.115E-26
  7.416  0.000E+00  0.000E+00
  7.426  0.000E+00  0.000E+00
  7.436  0.000E+00  0.000E+00
  7.446  0.000E+00  0.000E+00
  7.456  0.000E+00  0.000E+00
  7.466  0.000E+00  0.000E+00
  7.476  0.000E+00  0.000E+00
  7.486  0.000E+00  0.000E+00
  7.496  0.000E+00  0.000E+00
  7.506  0.000E+00  0.000E+00
  7.516  0.000E+00  0.000E+00
  7.526  0.000E+00  0.000E+00
  7.536  0.000E+00  0.000E+00
  7.546  0.000E+00  0.000E+00
  7.556  0.000E+00  0.000E+00
  7.566  0.000E+00  0.000E+00
  7.576  0.000E+00  0.000E+00
  7.586  0.000E+00  0.000E+00
  7.596  0.664E-14  0.664E-14
  7.606  0.140E-13  0.140E-13
  7.616  0.390E-13  0.390E-13
  7.626  0.805E-13  0.805E-13
  7.636  0.165E-12  0.165E-12
  7.646  0.333E-12  0.333E-12
  7.656  0.667E-12  0.667E-12
  7.666  0.133E-11  0.133E-11
  7.676  0.261E-11  0.261E-11
  7.686  0.507E-11  0.507E-11
  7.696  0.974E-11  0.974E-11
  7.706  0.185E-10  0.185E-10
  7.716  0.347E-10  0.347E-10
  7.726  0.646E-10  0.646E-10
  7.736  0.119E-09  0.119E-09
  7.746  0.216E-09  0.216E-09
  7.756  0.389E-09  0.389E-09
  7.766  0.693E-09  0.693E-09
  7.776  0.122E-08  0.122E-08
  7.786  0.213E-08  0.213E-08
  7.796  0.368E-08  0.368E-08
  7.806  0.629E-08  0.629E-08
  7.816  0.106E-07  0.106E-07
  7.826  0.178E-07  0.178E-07
  7.836  0.294E-07  0.294E-07
  7.846  0.481E-07  0.481E-07
  7.856  0.780E-07  0.780E-07
  7.866  0.125E-06  0.125E-06
  7.876  0.198E-06  0.198E-06
  7.886  0.312E-06  0.312E-06
  7.896  0.484E-06  0.484E-06
  7.906  0.745E-06  0.745E-06
  7.916  0.113E-05  0.113E-05
  7.926  0.171E-05  0.171E-05
  7.936  0.255E-05  0.255E-05
  7.946  0.376E-05  0.376E-05
  7.956  0.549E-05  0.549E-05
  7.966  0.793E-05  0.793E-05
  7.976  0.113E-04  0.113E-04
  7.986  0.161E-04  0.161E-04
  7.996  0.225E-04  0.225E-04
  8.006  0.313E-04  0.313E-04
  8.016  0.430E-04  0.430E-04
  8.026  0.586E-04  0.586E-04
  8.036  0.789E-04  0.789E-04
  8.046  0.105E-03  0.105E-03
  8.056  0.139E-03  0.139E-03
  8.066  0.182E-03  0.182E-03
  8.076  0.236E-03  0.236E-03
  8.086  0.304E-03  0.304E-03
  8.096  0.387E-03  0.387E-03
  8.106  0.489E-03  0.489E-03
  8.116  0.611E-03  0.611E-03
  8.126  0.758E-03  0.758E-03
  8.136  0.933E-03  0.933E-03
  8.146  0.114E-02  0.114E-02
  8.156  0.138E-02  0.138E-02
  8.166  0.166E-02  0.166E-02
  8.176  0.198E-02  0.198E-02
  8.186  0.235E-02  0.235E-02
  8.196  0.276E-02  0.276E-02
  8.206  0.324E-02  0.324E-02
  8.216  0.377E-02  0.377E-02
  8.226  0.437E-02  0.437E-02
  8.236  0.504E-02  0.504E-02
  8.246  0.578E-02  0.578E-02
  8.256  0.661E-02  0.661E-02
  8.266  0.754E-02  0.754E-02
  8.276  0.856E-02  0.856E-02
  8.286  0.969E-02  0.969E-02
  8.296  0.109E-01  0.109E-01
  8.306  0.123E-01  0.123E-01
  8.316  0.138E-01  0.138E-01
  8.326  0.155E-01  0.155E-01
  8.336  0.173E-01  0.173E-01
  8.346  0.192E-01  0.192E-01
  8.356  0.213E-01  0.213E-01
  8.366  0.235E-01  0.235E-01
  8.376  0.259E-01  0.259E-01
  8.386  0.284E-01  0.284E-01
  8.396  0.310E-01  0.310E-01
  8.406  0.337E-01  0.337E-01
  8.416  0.365E-01  0.365E-01
  8.426  0.392E-01  0.392E-01
  8.436  0.420E-01  0.420E-01
  8.446  0.448E-01  0.448E-01
  8.456  0.475E-01  0.475E-01
  8.466  0.502E-01  0.502E-01
  8.476  0.527E-01  0.527E-01
  8.486  0.550E-01  0.550E-01
  8.496  0.572E-01  0.572E-01
  8.506  0.592E-01  0.592E-01
  8.516  0.611E-01  0.611E-01
  8.526  0.627E-01  0.627E-01
  8.536  0.641E-01  0.641E-01
  8.546  0.654E-01  0.654E-01
  8.556  0.665E-01  0.665E-01
  8.566  0.675E-01  0.675E-01
  8.576  0.684E-01  0.684E-01
  8.586  0.692E-01  0.692E-01
  8.596  0.700E-01  0.700E-01
  8.606  0.707E-01  0.707E-01
  8.616  0.715E-01  0.715E-01
  8.626  0.724E-01  0.724E-01
  8.636  0.733E-01  0.733E-01
  8.646  0.743E-01  0.743E-01
  8.656  0.755E-01  0.755E-01
  8.666  0.768E-01  0.768E-01
  8.676  0.782E-01  0.782E-01
  8.686  0.798E-01  0.798E-01
  8.696  0.815E-01  0.815E-01
  8.706  0.834E-01  0.834E-01
  8.716  0.854E-01  0.854E-01
  8.726  0.875E-01  0.875E-01
  8.736  0.897E-01  0.897E-01
  8.746  0.920E-01  0.920E-01
  8.756  0.944E-01  0.944E-01
  8.766  0.968E-01  0.968E-01
  8.776  0.991E-01  0.991E-01
  8.786  0.102E+00  0.102E+00
  8.796  0.104E+00  0.104E+00
  8.806  0.106E+00  0.106E+00
  8.816  0.108E+00  0.108E+00
  8.826  0.111E+00  0.111E+00
  8.836  0.113E+00  0.113E+00
  8.846  0.115E+00  0.115E+00
  8.856  0.117E+00  0.117E+00
  8.866  0.118E+00  0.118E+00
  8.876  0.120E+00  0.120E+00
  8.886  0.121E+00  0.121E+00
  8.896  0.123E+00  0.123E+00
  8.906  0.124E+00  0.124E+00
  8.916  0.125E+00  0.125E+00
  8.926  0.126E+00  0.126E+00
  8.936  0.127E+00  0.127E+00
  8.946  0.128E+00  0.128E+00
  8.956  0.129E+00  0.129E+00
  8.966  0.129E+00  0.129E+00
  8.976  0.130E+00  0.130E+00
  8.986  0.131E+00  0.131E+00
  8.996  0.131E+00  0.131E+00
  9.006  0.132E+00  0.132E+00
  9.016  0.133E+00  0.133E+00
  9.026  0.134E+00  0.134E+00
  9.036  0.135E+00  0.135E+00
  9.046  0.136E+00  0.136E+00
  9.056  0.137E+00  0.137E+00
  9.066  0.139E+00  0.139E+00
  9.076  0.140E+00  0.140E+00
  9.086  0.142E+00  0.142E+00
  9.096  0.144E+00  0.144E+00
  9.106  0.147E+00  0.147E+00
  9.116  0.149E+00  0.149E+00
  9.126  0.152E+00  0.152E+00
  9.136  0.155E+00  0.155E+00
  9.146  0.158E+00  0.158E+00
  9.156  0.161E+00  0.161E+00
  9.166  0.164E+00  0.164E+00
  9.176  0.167E+00  0.167E+00
  9.186  0.170E+00  0.170E+00
  9.196  0.173E+00  0.173E+00
  9.206  0.175E+00  0.175E+00
  9.216  0.178E+00  0.178E+00
  9.226  0.180E+00  0.180E+00
  9.236  0.183E+00  0.183E+00
  9.246  0.185E+00  0.185E+00
  9.256  0.186E+00  0.186E+00
  9.266  0.188E+00  0.188E+00
  9.276  0.189E+00  0.189E+00
  9.286  0.190E+00  0.190E+00
  9.296  0.191E+00  0.191E+00
  9.306  0.192E+00  0.192E+00
  9.316  0.193E+00  0.193E+00
  9.326  0.193E+00  0.193E+00
  9.336  0.194E+00  0.194E+00
  9.346  0.194E+00  0.194E+00
  9.356  0.195E+00  0.195E+00
  9.366  0.195E+00  0.195E+00
  9.376  0.195E+00  0.195E+00
  9.386  0.196E+00  0.196E+00
  9.396  0.196E+00  0.196E+00
  9.406  0.196E+00  0.196E+00
  9.416  0.197E+00  0.197E+00
  9.426  0.197E+00  0.197E+00
  9.436  0.198E+00  0.198E+00
  9.446  0.198E+00  0.198E+00
  9.456  0.198E+00  0.198E+00
  9.466  0.198E+00  0.198E+00
  9.476  0.199E+00  0.199E+00
  9.486  0.199E+00  0.199E+00
  9.496  0.199E+00  0.199E+00
  9.506  0.198E+00  0.198E+00
  9.516  0.198E+00  0.198E+00
  9.526  0.197E+00  0.197E+00
  9.536  0.196E+00  0.196E+00
  9.546  0.195E+00  0.195E+00
  9.556  0.194E+00  0.194E+00
  9.566  0.193E+00  0.193E+00
  9.576  0.191E+00  0.191E+00
  9.586  0.189E+00  0.189E+00
  9.596  0.187E+00  0.187E+00
  9.606  0.184E+00  0.184E+00
  9.616  0.182E+00  0.182E+00
  9.626  0.179E+00  0.179E+00
  9.636  0.176E+00  0.176E+00
  9.646  0.174E+00  0.174E+00
  9.656  0.171E+00  0.171E+00
  9.666  0.168E+00  0.168E+00
  9.676  0.165E+00  0.165E+00
  9.686  0.162E+00  0.162E+00
  9.696  0.159E+00  0.159E+00
  9.706  0.157E+00  0.157E+00
  9.716  0.154E+00  0.154E+00
  9.726  0.152E+00  0.152E+00
  9.736  0.150E+00  0.150E+00
  9.746  0.148E+00  0.148E+00
  9.756  0.146E+00  0.146E+00
  9.766  0.145E+00  0.145E+00
  9.776  0.143E+00  0.143E+00
  9.786  0.142E+00  0.142E+00
  9.796  0.141E+00  0.141E+00
  9.806  0.139E+00  0.139E+00
  9.816  0.138E+00  0.138E+00
  9.826  0.136E+00  0.136E+00
  9.836  0.135E+00  0.135E+00
  9.846  0.133E+00  0.133E+00
  9.856  0.131E+00  0.131E+00
  9.866  0.128E+00  0.128E+00
  9.876  0.126E+00  0.126E+00
  9.886  0.123E+00  0.123E+00
  9.896  0.120E+00  0.120E+00
  9.906  0.116E+00  0.116E+00
  9.916  0.113E+00  0.113E+00
  9.926  0.110E+00  0.110E+00
  9.936  0.106E+00  0.106E+00
  9.946  0.103E+00  0.103E+00
  9.956  0.992E-01  0.992E-01
  9.966  0.959E-01  0.959E-01
  9.976  0.927E-01  0.927E-01
  9.986  0.897E-01  0.897E-01
  9.996  0.869E-01  0.869E-01
 10.006  0.844E-01  0.844E-01
 10.016  0.820E-01  0.820E-01
 10.026  0.800E-01  0.800E-01
 10.036  0.782E-01  0.782E-01
 10.046  0.767E-01  0.767E-01
 10.056  0.754E-01  0.754E-01
 10.066  0.743E-01  0.743E-01
 10.076  0.735E-01  0.735E-01
 10.086  0.730E-01  0.730E-01
 10.096  0.726E-01  0.726E-01
 10.106  0.725E-01  0.725E-01
 10.116  0.725E-01  0.725E-01
 10.126  0.727E-01  0.727E-01
 10.136  0.731E-01  0.731E-01
 10.146  0.736E-01  0.736E-01
 10.156  0.742E-01  0.742E-01
 10.166  0.749E-01  0.749E-01
 10.176  0.757E-01  0.757E-01
 10.186  0.766E-01  0.766E-01
 10.196  0.775E-01  0.775E-01
 10.206  0.784E-01  0.784E-01
 10.216  0.794E-01  0.794E-01
 10.226  0.804E-01  0.804E-01
 10.236  0.814E-01  0.814E-01
 10.246  0.824E-01  0.824E-01
 10.256  0.835E-01  0.835E-01
 10.266  0.845E-01  0.845E-01
 10.276  0.856E-01  0.856E-01
 10.286  0.868E-01  0.868E-01
 10.296  0.880E-01  0.880E-01
 10.306  0.892E-01  0.892E-01
 10.316  0.905E-01  0.905E-01
 10.326  0.919E-01  0.919E-01
 10.336  0.933E-01  0.933E-01
 10.346  0.948E-01  0.948E-01
 10.356  0.963E-01  0.963E-01
 10.366  0.979E-01  0.979E-01
 10.376  0.994E-01  0.994E-01
 10.386  0.101E+00  0.101E+00
 10.396  0.102E+00  0.102E+00
 10.406  0.104E+00  0.104E+00
 10.416  0.105E+00  0.105E+00
 10.426  0.107E+00  0.107E+00
 10.436  0.108E+00  0.108E+00
 10.446  0.109E+00  0.109E+00
 10.456  0.110E+00  0.110E+00
 10.466  0.110E+00  0.110E+00
 10.476  0.111E+00  0.111E+00
 10.486  0.112E+00  0.112E+00
 10.496  0.112E+00  0.112E+00
 10.506  0.112E+00  0.112E+00
 10.516  0.112E+00  0.112E+00
 10.526  0.112E+00  0.112E+00
 10.536  0.112E+00  0.112E+00
 10.546  0.112E+00  0.112E+00
 10.556  0.111E+00  0.111E+00
 10.566  0.111E+00  0.111E+00
 10.576  0.110E+00  0.110E+00
 10.586  0.109E+00  0.109E+00
 10.596  0.108E+00  0.108E+00
 10.606  0.107E+00  0.107E+00
 10.616  0.106E+00  0.106E+00
 10.626  0.105E+00  0.105E+00
 10.636  0.104E+00  0.104E+00
 10.646  0.102E+00  0.102E+00
 10.656  0.101E+00  0.101E+00
 10.666  0.989E-01  0.989E-01
 10.676  0.970E-01  0.970E-01
 10.686  0.950E-01  0.950E-01
 10.696  0.929E-01  0.929E-01
 10.706  0.907E-01  0.907E-01
 10.716  0.884E-01  0.884E-01
 10.726  0.861E-01  0.861E-01
 10.736  0.838E-01  0.838E-01
 10.746  0.815E-01  0.815E-01
 10.756  0.793E-01  0.793E-01
 10.766  0.772E-01  0.772E-01
 10.776  0.752E-01  0.752E-01
 10.786  0.734E-01  0.734E-01
 10.796  0.719E-01  0.719E-01
 10.806  0.706E-01  0.706E-01
 10.816  0.696E-01  0.696E-01
 10.826  0.688E-01  0.688E-01
 10.836  0.683E-01  0.683E-01
 10.846  0.681E-01  0.681E-01
 10.856  0.682E-01  0.682E-01
 10.866  0.685E-01  0.685E-01
 10.876  0.689E-01  0.689E-01
 10.886  0.696E-01  0.696E-01
 10.896  0.704E-01  0.704E-01
 10.906  0.713E-01  0.713E-01
 10.916  0.722E-01  0.722E-01
 10.926  0.732E-01  0.732E-01
 10.936  0.742E-01  0.742E-01
 10.946  0.752E-01  0.752E-01
 10.956  0.761E-01  0.761E-01
 10.966  0.771E-01  0.771E-01
 10.976  0.780E-01  0.780E-01
 10.986  0.788E-01  0.788E-01
 10.996  0.797E-01  0.797E-01
 11.006  0.806E-01  0.806E-01
 11.016  0.814E-01  0.814E-01
 11.026  0.823E-01  0.823E-01
 11.036  0.832E-01  0.832E-01
 11.046  0.842E-01  0.842E-01
 11.056  0.851E-01  0.851E-01
 11.066  0.862E-01  0.862E-01
 11.076  0.872E-01  0.872E-01
 11.086  0.883E-01  0.883E-01
 11.096  0.893E-01  0.893E-01
 11.106  0.903E-01  0.903E-01
 11.116  0.913E-01  0.913E-01
 11.126  0.921E-01  0.921E-01
 11.136  0.929E-01  0.929E-01
 11.146  0.936E-01  0.936E-01
 11.156  0.941E-01  0.941E-01
 11.166  0.944E-01  0.944E-01
 11.176  0.947E-01  0.947E-01
 11.186  0.947E-01  0.947E-01
 11.196  0.946E-01  0.946E-01
 11.206  0.943E-01  0.943E-01
 11.216  0.939E-01  0.939E-01
 11.226  0.934E-01  0.934E-01
 11.236  0.927E-01  0.927E-01
 11.246  0.919E-01  0.919E-01
 11.256  0.910E-01  0.910E-01
 11.266  0.899E-01  0.899E-01
 11.276  0.888E-01  0.888E-01
 11.286  0.875E-01  0.875E-01
 11.296  0.862E-01  0.862E-01
 11.306  0.847E-01  0.847E-01
 11.316  0.831E-01  0.831E-01
 11.326  0.814E-01  0.814E-01
 11.336  0.796E-01  0.796E-01
 11.346  0.777E-01  0.777E-01
 11.356  0.756E-01  0.756E-01
 11.366  0.736E-01  0.736E-01
 11.376  0.714E-01  0.714E-01
 11.386  0.691E-01  0.691E-01
 11.396  0.669E-01  0.669E-01
 11.406  0.646E-01  0.646E-01
 11.416  0.623E-01  0.623E-01
 11.426  0.600E-01  0.600E-01
 11.436  0.578E-01  0.578E-01
 11.446  0.556E-01  0.556E-01
 11.456  0.535E-01  0.535E-01
 11.466  0.515E-01  0.515E-01
 11.476  0.495E-01  0.495E-01
 11.486  0.477E-01  0.477E-01
 11.496  0.461E-01  0.461E-01
 11.506  0.445E-01  0.445E-01
 11.516  0.431E-01  0.431E-01
 11.526  0.417E-01  0.417E-01
 11.536  0.405E-01  0.405E-01
 11.546  0.394E-01  0.394E-01
 11.556  0.384E-01  0.384E-01
 11.566  0.375E-01  0.375E-01
 11.576  0.366E-01  0.366E-01
 11.586  0.358E-01  0.358E-01
 11.596  0.351E-01  0.351E-01
 11.606  0.345E-01  0.345E-01
 11.616  0.338E-01  0.338E-01
 11.626  0.333E-01  0.333E-01
 11.636  0.327E-01  0.327E-01
 11.646  0.322E-01  0.322E-01
 11.656  0.318E-01  0.318E-01
 11.666  0.314E-01  0.314E-01
 11.676  0.310E-01  0.310E-01
 11.686  0.307E-01  0.307E-01
 11.696  0.304E-01  0.304E-01
 11.706  0.302E-01  0.302E-01
 11.716  0.300E-01  0.300E-01
 11.726  0.299E-01  0.299E-01
 11.736  0.298E-01  0.298E-01
 11.746  0.297E-01  0.297E-01
 11.756  0.296E-01  0.296E-01
 11.766  0.296E-01  0.296E-01
 11.776  0.295E-01  0.295E-01
 11.786  0.295E-01  0.295E-01
 11.796  0.294E-01  0.294E-01
 11.806  0.293E-01  0.293E-01
 11.816  0.292E-01  0.292E-01
 11.826  0.291E-01  0.291E-01
 11.836  0.290E-01  0.290E-01
 11.846  0.289E-01  0.289E-01
 11.856  0.288E-01  0.288E-01
 11.866  0.287E-01  0.287E-01
 11.876  0.286E-01  0.286E-01
 11.886  0.285E-01  0.285E-01
 11.896  0.285E-01  0.285E-01
 11.906  0.284E-01  0.284E-01
 11.916  0.285E-01  0.285E-01
 11.926  0.285E-01  0.285E-01
 11.936  0.286E-01  0.286E-01
 11.946  0.288E-01  0.288E-01
 11.956  0.289E-01  0.289E-01
 11.966  0.292E-01  0.292E-01
 11.976  0.294E-01  0.294E-01
 11.986  0.296E-01  0.296E-01
 11.996  0.299E-01  0.299E-01
 12.006  0.301E-01  0.301E-01
 12.016  0.303E-01  0.303E-01
 12.026  0.305E-01  0.305E-01
 12.036  0.307E-01  0.307E-01
 12.046  0.308E-01  0.308E-01
 12.056  0.308E-01  0.308E-01
 12.066  0.308E-01  0.308E-01
 12.076  0.307E-01  0.307E-01
 12.086  0.306E-01  0.306E-01
 12.096  0.303E-01  0.303E-01
 12.106  0.300E-01  0.300E-01
 12.116  0.297E-01  0.297E-01
 12.126  0.293E-01  0.293E-01
 12.136  0.288E-01  0.288E-01
 12.146  0.283E-01  0.283E-01
 12.156  0.279E-01  0.279E-01
 12.166  0.274E-01  0.274E-01
 12.176  0.270E-01  0.270E-01
 12.186  0.266E-01  0.266E-01
 12.196  0.264E-01  0.264E-01
 12.206  0.262E-01  0.262E-01
 12.216  0.261E-01  0.261E-01
 12.226  0.262E-01  0.262E-01
 12.236  0.264E-01  0.264E-01
 12.246  0.267E-01  0.267E-01
 12.256  0.272E-01  0.272E-01
 12.266  0.279E-01  0.279E-01
 12.276  0.287E-01  0.287E-01
 12.286  0.297E-01  0.297E-01
 12.296  0.308E-01  0.308E-01
 12.306  0.320E-01  0.320E-01
 12.316  0.334E-01  0.334E-01
 12.326  0.348E-01  0.348E-01
 12.336  0.364E-01  0.364E-01
 12.346  0.380E-01  0.380E-01
 12.356  0.397E-01  0.397E-01
 12.366  0.414E-01  0.414E-01
 12.376  0.432E-01  0.432E-01
 12.386  0.450E-01  0.450E-01
 12.396  0.467E-01  0.467E-01
 12.406  0.485E-01  0.485E-01
 12.416  0.503E-01  0.503E-01
 12.426  0.520E-01  0.520E-01
 12.436  0.536E-01  0.536E-01
 12.446  0.552E-01  0.552E-01
 12.456  0.567E-01  0.567E-01
 12.466  0.580E-01  0.580E-01
 12.476  0.592E-01  0.592E-01
 12.486  0.603E-01  0.603E-01
 12.496  0.612E-01  0.612E-01
 12.506  0.619E-01  0.619E-01
 12.516  0.623E-01  0.623E-01
 12.526  0.626E-01  0.626E-01
 12.536  0.627E-01  0.627E-01
 12.546  0.625E-01  0.625E-01
 12.556  0.621E-01  0.621E-01
 12.566  0.616E-01  0.616E-01
 12.576  0.608E-01  0.608E-01
 12.586  0.598E-01  0.598E-01
 12.596  0.588E-01  0.588E-01
 12.606  0.576E-01  0.576E-01
 12.616  0.563E-01  0.563E-01
 12.626  0.549E-01  0.549E-01
 12.636  0.535E-01  0.535E-01
 12.646  0.522E-01  0.522E-01
 12.656  0.508E-01  0.508E-01
 12.666  0.496E-01  0.496E-01
 12.676  0.484E-01  0.484E-01
 12.686  0.473E-01  0.473E-01
 12.696  0.464E-01  0.464E-01
 12.706  0.456E-01  0.456E-01
 12.716  0.449E-01  0.449E-01
 12.726  0.444E-01  0.444E-01
 12.736  0.441E-01  0.441E-01
 12.746  0.439E-01  0.439E-01
 12.756  0.439E-01  0.439E-01
 12.766  0.440E-01  0.440E-01
 12.776  0.443E-01  0.443E-01
 12.786  0.446E-01  0.446E-01
 12.796  0.451E-01  0.451E-01
 12.806  0.457E-01  0.457E-01
 12.816  0.464E-01  0.464E-01
 12.826  0.471E-01  0.471E-01
 12.836  0.479E-01  0.479E-01
 12.846  0.487E-01  0.487E-01
 12.856  0.496E-01  0.496E-01
 12.866  0.505E-01  0.505E-01
 12.876  0.513E-01  0.513E-01
 12.886  0.521E-01  0.521E-01
 12.896  0.529E-01  0.529E-01
 12.906  0.536E-01  0.536E-01
 12.916  0.541E-01  0.541E-01
 12.926  0.546E-01  0.546E-01
 12.936  0.550E-01  0.550E-01
 12.946  0.552E-01  0.552E-01
 12.956  0.553E-01  0.553E-01
 12.966  0.552E-01  0.552E-01
 12.976  0.550E-01  0.550E-01
 12.986  0.546E-01  0.546E-01
 12.996  0.541E-01  0.541E-01
 13.006  0.534E-01  0.534E-01
 13.016  0.526E-01  0.526E-01
 13.026  0.517E-01  0.517E-01
 13.036  0.508E-01  0.508E-01
 13.046  0.497E-01  0.497E-01
 13.056  0.487E-01  0.487E-01
 13.066  0.476E-01  0.476E-01
 13.076  0.465E-01  0.465E-01
 13.086  0.454E-01  0.454E-01
 13.096  0.444E-01  0.444E-01
 13.106  0.434E-01  0.434E-01
 13.116  0.425E-01  0.425E-01
 13.126  0.417E-01  0.417E-01
 13.136  0.410E-01  0.410E-01
 13.146  0.404E-01  0.404E-01
 13.156  0.399E-01  0.399E-01
 13.166  0.396E-01  0.396E-01
 13.176  0.393E-01  0.393E-01
 13.186  0.392E-01  0.392E-01
 13.196  0.392E-01  0.392E-01
 13.206  0.393E-01  0.393E-01
 13.216  0.394E-01  0.394E-01
 13.226  0.396E-01  0.396E-01
 13.236  0.399E-01  0.399E-01
 13.246  0.403E-01  0.403E-01
 13.256  0.407E-01  0.407E-01
 13.266  0.411E-01  0.411E-01
 13.276  0.416E-01  0.416E-01
 13.286  0.420E-01  0.420E-01
 13.296  0.425E-01  0.425E-01
 13.306  0.429E-01  0.429E-01
 13.316  0.434E-01  0.434E-01
 13.326  0.438E-01  0.438E-01
 13.336  0.441E-01  0.441E-01
 13.346  0.444E-01  0.444E-01
 13.356  0.447E-01  0.447E-01
 13.366  0.449E-01  0.449E-01
 13.376  0.451E-01  0.451E-01
 13.386  0.452E-01  0.452E-01
 13.396  0.452E-01  0.452E-01
 13.406  0.452E-01  0.452E-01
 13.416  0.451E-01  0.451E-01
 13.426  0.449E-01  0.449E-01
 13.436  0.447E-01  0.447E-01
 13.446  0.444E-01  0.444E-01
 13.456  0.440E-01  0.440E-01
 13.466  0.436E-01  0.436E-01
 13.476  0.431E-01  0.431E-01
 13.486  0.426E-01  0.426E-01
 13.496  0.421E-01  0.421E-01
 13.506  0.415E-01  0.415E-01
 13.516  0.409E-01  0.409E-01
 13.526  0.403E-01  0.403E-01
 13.536  0.397E-01  0.397E-01
 13.546  0.391E-01  0.391E-01
 13.556  0.385E-01  0.385E-01
 13.566  0.380E-01  0.380E-01
 13.576  0.375E-01  0.375E-01
 13.586  0.370E-01  0.370E-01
 13.596  0.367E-01  0.367E-01
 13.606  0.364E-01  0.364E-01
 13.616  0.361E-01  0.361E-01
 13.626  0.360E-01  0.360E-01
 13.636  0.359E-01  0.359E-01
 13.646  0.360E-01  0.360E-01
 13.656  0.361E-01  0.361E-01
 13.666  0.364E-01  0.364E-01
 13.676  0.367E-01  0.367E-01
 13.686  0.371E-01  0.371E-01
 13.696  0.375E-01  0.375E-01
 13.706  0.379E-01  0.379E-01
 13.716  0.384E-01  0.384E-01
 13.726  0.389E-01  0.389E-01
 13.736  0.394E-01  0.394E-01
 13.746  0.398E-01  0.398E-01
 13.756  0.402E-01  0.402E-01
 13.766  0.406E-01  0.406E-01
 13.776  0.409E-01  0.409E-01
 13.786  0.412E-01  0.412E-01
 13.796  0.415E-01  0.415E-01
 13.806  0.417E-01  0.417E-01
 13.816  0.420E-01  0.420E-01
 13.826  0.422E-01  0.422E-01
 13.836  0.424E-01  0.424E-01
 13.846  0.427E-01  0.427E-01
 13.856  0.430E-01  0.430E-01
 13.866  0.433E-01  0.433E-01
 13.876  0.437E-01  0.437E-01
 13.886  0.441E-01  0.441E-01
 13.896  0.446E-01  0.446E-01
 13.906  0.451E-01  0.451E-01
 13.916  0.456E-01  0.456E-01
 13.926  0.462E-01  0.462E-01
 13.936  0.467E-01  0.467E-01
 13.946  0.472E-01  0.472E-01
 13.956  0.477E-01  0.477E-01
 13.966  0.481E-01  0.481E-01
 13.976  0.485E-01  0.485E-01
 13.986  0.487E-01  0.487E-01
 13.996  0.489E-01  0.489E-01
 14.006  0.489E-01  0.489E-01
 14.016  0.489E-01  0.489E-01
 14.026  0.487E-01  0.487E-01
 14.036  0.485E-01  0.485E-01
 14.046  0.481E-01  0.481E-01
 14.056  0.477E-01  0.477E-01
 14.066  0.472E-01  0.472E-01
 14.076  0.466E-01  0.466E-01
 14.086  0.460E-01  0.460E-01
 14.096  0.454E-01  0.454E-01
 14.106  0.447E-01  0.447E-01
 14.116  0.440E-01  0.440E-01
 14.126  0.433E-01  0.433E-01
 14.136  0.426E-01  0.426E-01
 14.146  0.419E-01  0.419E-01
 14.156  0.412E-01  0.412E-01
 14.166  0.406E-01  0.406E-01
 14.176  0.399E-01  0.399E-01
 14.186  0.393E-01  0.393E-01
 14.196  0.387E-01  0.387E-01
 14.206  0.382E-01  0.382E-01
 14.216  0.377E-01  0.377E-01
 14.226  0.372E-01  0.372E-01
 14.236  0.368E-01  0.368E-01
 14.246  0.364E-01  0.364E-01
 14.256  0.361E-01  0.361E-01
 14.266  0.358E-01  0.358E-01
 14.276  0.356E-01  0.356E-01
 14.286  0.355E-01  0.355E-01
 14.296  0.354E-01  0.354E-01
 14.306  0.353E-01  0.353E-01
 14.316  0.353E-01  0.353E-01
 14.326  0.354E-01  0.354E-01
 14.336  0.355E-01  0.355E-01
 14.346  0.357E-01  0.357E-01
 14.356  0.360E-01  0.360E-01
 14.366  0.363E-01  0.363E-01
 14.376  0.367E-01  0.367E-01
 14.386  0.372E-01  0.372E-01
 14.396  0.377E-01  0.377E-01
 14.406  0.383E-01  0.383E-01
 14.416  0.389E-01  0.389E-01
 14.426  0.396E-01  0.396E-01
 14.436  0.403E-01  0.403E-01
 14.446  0.409E-01  0.409E-01
 14.456  0.416E-01  0.416E-01
 14.466  0.423E-01  0.423E-01
 14.476  0.429E-01  0.429E-01
 14.486  0.434E-01  0.434E-01
 14.496  0.439E-01  0.439E-01
 14.506  0.443E-01  0.443E-01
 14.516  0.446E-01  0.446E-01
 14.526  0.447E-01  0.447E-01
 14.536  0.448E-01  0.448E-01
 14.546  0.447E-01  0.447E-01
 14.556  0.445E-01  0.445E-01
 14.566  0.442E-01  0.442E-01
 14.576  0.437E-01  0.437E-01
 14.586  0.431E-01  0.431E-01
 14.596  0.424E-01  0.424E-01
 14.606  0.416E-01  0.416E-01
 14.616  0.407E-01  0.407E-01
 14.626  0.398E-01  0.398E-01
 14.636  0.387E-01  0.387E-01
 14.646  0.377E-01  0.377E-01
 14.656  0.366E-01  0.366E-01
 14.666  0.354E-01  0.354E-01
 14.676  0.343E-01  0.343E-01
 14.686  0.331E-01  0.331E-01
 14.696  0.320E-01  0.320E-01
 14.706  0.309E-01  0.309E-01
 14.716  0.298E-01  0.298E-01
 14.726  0.288E-01  0.288E-01
 14.736  0.278E-01  0.278E-01
 14.746  0.269E-01  0.269E-01
 14.756  0.260E-01  0.260E-01
 14.766  0.252E-01  0.252E-01
 14.776  0.244E-01  0.244E-01
 14.786  0.237E-01  0.237E-01
 14.796  0.231E-01  0.231E-01
 14.806  0.226E-01  0.226E-01
 14.816  0.221E-01  0.221E-01
 14.826  0.217E-01  0.217E-01
 14.836  0.213E-01  0.213E-01
 14.846  0.210E-01  0.210E-01
 14.856  0.207E-01  0.207E-01
 14.866  0.205E-01  0.205E-01
 14.876  0.203E-01  0.203E-01
 14.886  0.201E-01  0.201E-01
 14.896  0.199E-01  0.199E-01
 14.906  0.197E-01  0.197E-01
 14.916  0.195E-01  0.195E-01
 14.926  0.193E-01  0.193E-01
 14.936  0.190E-01  0.190E-01
 14.946  0.187E-01  0.187E-01
 14.956  0.184E-01  0.184E-01
 14.966  0.180E-01  0.180E-01
 14.976  0.175E-01  0.175E-01
 14.986  0.171E-01  0.171E-01
 14.996  0.166E-01  0.166E-01
 15.006  0.161E-01  0.161E-01
 15.016  0.156E-01  0.156E-01
 15.026  0.150E-01  0.150E-01
 15.036  0.145E-01  0.145E-01
 15.046  0.140E-01  0.140E-01
 15.056  0.135E-01  0.135E-01
 15.066  0.130E-01  0.130E-01
 15.076  0.125E-01  0.125E-01
 15.086  0.121E-01  0.121E-01
 15.096  0.116E-01  0.116E-01
 15.106  0.112E-01  0.112E-01
 15.116  0.109E-01  0.109E-01
 15.126  0.105E-01  0.105E-01
 15.136  0.102E-01  0.102E-01
 15.146  0.983E-02  0.983E-02
 15.156  0.951E-02  0.951E-02
 15.166  0.921E-02  0.921E-02
 15.176  0.891E-02  0.891E-02
 15.186  0.862E-02  0.862E-02
 15.196  0.834E-02  0.834E-02
 15.206  0.807E-02  0.807E-02
 15.216  0.781E-02  0.781E-02
 15.226  0.755E-02  0.755E-02
 15.236  0.732E-02  0.732E-02
 15.246  0.709E-02  0.709E-02
 15.256  0.688E-02  0.688E-02
 15.266  0.669E-02  0.669E-02
 15.276  0.652E-02  0.652E-02
 15.286  0.637E-02  0.637E-02
 15.296  0.624E-02  0.624E-02
 15.306  0.613E-02  0.613E-02
 15.316  0.603E-02  0.603E-02
 15.326  0.596E-02  0.596E-02
 15.336  0.589E-02  0.589E-02
 15.346  0.584E-02  0.584E-02
 15.356  0.580E-02  0.580E-02
 15.366  0.576E-02  0.576E-02
 15.376  0.572E-02  0.572E-02
 15.386  0.569E-02  0.569E-02
 15.396  0.565E-02  0.565E-02
 15.406  0.560E-02  0.560E-02
 15.416  0.555E-02  0.555E-02
 15.426  0.548E-02  0.548E-02
 15.436  0.540E-02  0.540E-02
 15.446  0.531E-02  0.531E-02
 15.456  0.520E-02  0.520E-02
 15.466  0.507E-02  0.507E-02
 15.476  0.493E-02  0.493E-02
 15.486  0.477E-02  0.477E-02
 15.496  0.460E-02  0.460E-02
 15.506  0.441E-02  0.441E-02
 15.516  0.422E-02  0.422E-02
 15.526  0.402E-02  0.402E-02
 15.536  0.381E-02  0.381E-02
 15.546  0.360E-02  0.360E-02
 15.556  0.339E-02  0.339E-02
 15.566  0.319E-02  0.319E-02
 15.576  0.299E-02  0.299E-02
 15.586  0.280E-02  0.280E-02
 15.596  0.263E-02  0.263E-02
 15.606  0.246E-02  0.246E-02
 15.616  0.231E-02  0.231E-02
 15.626  0.217E-02  0.217E-02
 15.636  0.205E-02  0.205E-02
 15.646  0.194E-02  0.194E-02
 15.656  0.184E-02  0.184E-02
 15.666  0.176E-02  0.176E-02
 15.676  0.169E-02  0.169E-02
 15.686  0.163E-02  0.163E-02
 15.696  0.158E-02  0.158E-02
 15.706  0.155E-02  0.155E-02
 15.716  0.152E-02  0.152E-02
 15.726  0.150E-02  0.150E-02
 15.736  0.148E-02  0.148E-02
 15.746  0.148E-02  0.148E-02
 15.756  0.148E-02  0.148E-02
 15.766  0.149E-02  0.149E-02
 15.776  0.151E-02  0.151E-02
 15.786  0.153E-02  0.153E-02
 15.796  0.155E-02  0.155E-02
 15.806  0.159E-02  0.159E-02
 15.816  0.162E-02  0.162E-02
 15.826  0.166E-02  0.166E-02
 15.836  0.171E-02  0.171E-02
 15.846  0.176E-02  0.176E-02
 15.856  0.181E-02  0.181E-02
 15.866  0.186E-02  0.186E-02
 15.876  0.191E-02  0.191E-02
 15.886  0.196E-02  0.196E-02
 15.896  0.200E-02  0.200E-02
 15.906  0.204E-02  0.204E-02
 15.916  0.208E-02  0.208E-02
 15.926  0.211E-02  0.211E-02
 15.936  0.213E-02  0.213E-02
 15.946  0.214E-02  0.214E-02
 15.956  0.215E-02  0.215E-02
 15.966  0.214E-02  0.214E-02
 15.976  0.212E-02  0.212E-02
 15.986  0.209E-02  0.209E-02
 15.996  0.205E-02  0.205E-02
 16.006  0.200E-02  0.200E-02
 16.016  0.195E-02  0.195E-02
 16.026  0.188E-02  0.188E-02
 16.036  0.181E-02  0.181E-02
 16.046  0.173E-02  0.173E-02
 16.056  0.165E-02  0.165E-02
 16.066  0.157E-02  0.157E-02
 16.076  0.149E-02  0.149E-02
 16.086  0.140E-02  0.140E-02
 16.096  0.133E-02  0.133E-02
 16.106  0.125E-02  0.125E-02
 16.116  0.118E-02  0.118E-02
 16.126  0.111E-02  0.111E-02
 16.136  0.105E-02  0.105E-02
 16.146  0.986E-03  0.986E-03
 16.156  0.932E-03  0.932E-03
 16.166  0.882E-03  0.882E-03
 16.176  0.835E-03  0.835E-03
 16.186  0.793E-03  0.793E-03
 16.196  0.754E-03  0.754E-03
 16.206  0.718E-03  0.718E-03
 16.216  0.684E-03  0.684E-03
 16.226  0.653E-03  0.653E-03
 16.236  0.625E-03  0.625E-03
 16.246  0.598E-03  0.598E-03
 16.256  0.574E-03  0.574E-03
 16.266  0.552E-03  0.552E-03
 16.276  0.532E-03  0.532E-03
 16.286  0.514E-03  0.514E-03
 16.296  0.498E-03  0.498E-03
 16.306  0.485E-03  0.485E-03
 16.316  0.473E-03  0.473E-03
 16.326  0.463E-03  0.463E-03
 16.336  0.455E-03  0.455E-03
 16.346  0.448E-03  0.448E-03
 16.356  0.442E-03  0.442E-03
 16.366  0.437E-03  0.437E-03
 16.376  0.433E-03  0.433E-03
 16.386  0.428E-03  0.428E-03
 16.396  0.423E-03  0.423E-03
 16.406  0.418E-03  0.418E-03
 16.416  0.412E-03  0.412E-03
 16.426  0.404E-03  0.404E-03
 16.436  0.395E-03  0.395E-03
 16.446  0.385E-03  0.385E-03
 16.456  0.372E-03  0.372E-03
 16.466  0.359E-03  0.359E-03
 16.476  0.344E-03  0.344E-03
 16.486  0.327E-03  0.327E-03
 16.496  0.310E-03  0.310E-03
 16.506  0.293E-03  0.293E-03
 16.516  0.275E-03  0.275E-03
 16.526  0.258E-03  0.258E-03
 16.536  0.241E-03  0.241E-03
 16.546  0.225E-03  0.225E-03
 16.556  0.211E-03  0.211E-03
 16.566  0.199E-03  0.199E-03
 16.576  0.188E-03  0.188E-03
 16.586  0.179E-03  0.179E-03
 16.596  0.173E-03  0.173E-03
 16.606  0.168E-03  0.168E-03
 16.616  0.166E-03  0.166E-03
 16.626  0.165E-03  0.165E-03
 16.636  0.166E-03  0.166E-03
 16.646  0.168E-03  0.168E-03
 16.656  0.171E-03  0.171E-03
 16.666  0.174E-03  0.174E-03
 16.676  0.177E-03  0.177E-03
 16.686  0.180E-03  0.180E-03
 16.696  0.183E-03  0.183E-03
 16.706  0.185E-03  0.185E-03
 16.716  0.186E-03  0.186E-03
 16.726  0.185E-03  0.185E-03
 16.736  0.183E-03  0.183E-03
 16.746  0.180E-03  0.180E-03
 16.756  0.175E-03  0.175E-03
 16.766  0.169E-03  0.169E-03
 16.776  0.161E-03  0.161E-03
 16.786  0.153E-03  0.153E-03
 16.796  0.143E-03  0.143E-03
 16.806  0.133E-03  0.133E-03
 16.816  0.122E-03  0.122E-03
 16.826  0.111E-03  0.111E-03
 16.836  0.100E-03  0.100E-03
 16.846  0.894E-04  0.894E-04
 16.856  0.790E-04  0.790E-04
 16.866  0.690E-04  0.690E-04
 16.876  0.597E-04  0.597E-04
 16.886  0.511E-04  0.511E-04
 16.896  0.433E-04  0.433E-04
 16.906  0.364E-04  0.364E-04
 16.916  0.302E-04  0.302E-04
 16.926  0.248E-04  0.248E-04
 16.936  0.202E-04  0.202E-04
 16.946  0.162E-04  0.162E-04
 16.956  0.129E-04  0.129E-04
 16.966  0.102E-04  0.102E-04
 16.976  0.793E-05  0.793E-05
 16.986  0.612E-05  0.612E-05
 16.996  0.467E-05  0.467E-05
 17.006  0.353E-05  0.353E-05
 17.016  0.264E-05  0.264E-05
 17.026  0.195E-05  0.195E-05
 17.036  0.143E-05  0.143E-05
 17.046  0.103E-05  0.103E-05
 17.056  0.740E-06  0.740E-06
 17.066  0.525E-06  0.525E-06
 17.076  0.368E-06  0.368E-06
 17.086  0.255E-06  0.255E-06
 17.096  0.175E-06  0.175E-06
 17.106  0.119E-06  0.119E-06
 17.116  0.801E-07  0.801E-07
 17.126  0.533E-07  0.533E-07
 17.136  0.351E-07  0.351E-07
 17.146  0.228E-07  0.228E-07
 17.156  0.147E-07  0.147E-07
 17.166  0.938E-08  0.938E-08
 17.176  0.592E-08  0.592E-08
 17.186  0.369E-08  0.369E-08
 17.196  0.228E-08  0.228E-08
 17.206  0.139E-08  0.139E-08
 17.216  0.841E-09  0.841E-09
 17.226  0.503E-09  0.503E-09
 17.236  0.297E-09  0.297E-09
 17.246  0.174E-09  0.174E-09
 17.256  0.101E-09  0.101E-09
 17.266  0.577E-10  0.577E-10
 17.276  0.327E-10  0.327E-10
 17.286  0.184E-10  0.184E-10
 17.296  0.102E-10  0.102E-10
 17.306  0.559E-11  0.559E-11
 17.316  0.304E-11  0.304E-11
 17.326  0.163E-11  0.163E-11
 17.336  0.867E-12  0.867E-12
 17.346  0.456E-12  0.456E-12
 17.356  0.237E-12  0.237E-12
 17.366  0.122E-12  0.122E-12
 17.376  0.623E-13  0.623E-13
 17.386  0.314E-13  0.314E-13
 17.396  0.157E-13  0.157E-13
 17.406  0.775E-14  0.775E-14
 17.416  0.379E-14  0.379E-14
 17.426  0.155E-14  0.155E-14
 17.436  0.747E-15  0.747E-15
 17.446  0.111E-16  0.111E-16
 17.456  0.726E-17  0.726E-17
 17.466  0.472E-17  0.472E-17
 17.476  0.303E-17  0.303E-17
