# E (eV)   ldos(E)   pdos(E)   
 -8.284  0.259E-06  0.259E-06
 -8.274  0.415E-06  0.415E-06
 -8.264  0.657E-06  0.657E-06
 -8.254  0.103E-05  0.103E-05
 -8.244  0.160E-05  0.160E-05
 -8.234  0.245E-05  0.245E-05
 -8.224  0.372E-05  0.372E-05
 -8.214  0.559E-05  0.559E-05
 -8.204  0.831E-05  0.831E-05
 -8.194  0.122E-04  0.122E-04
 -8.184  0.178E-04  0.178E-04
 -8.174  0.256E-04  0.256E-04
 -8.164  0.365E-04  0.365E-04
 -8.154  0.515E-04  0.515E-04
 -8.144  0.718E-04  0.718E-04
 -8.134  0.992E-04  0.992E-04
 -8.124  0.135E-03  0.135E-03
 -8.114  0.183E-03  0.183E-03
 -8.104  0.245E-03  0.245E-03
 -8.094  0.324E-03  0.324E-03
 -8.084  0.424E-03  0.424E-03
 -8.074  0.549E-03  0.549E-03
 -8.064  0.704E-03  0.704E-03
 -8.054  0.893E-03  0.893E-03
 -8.044  0.112E-02  0.112E-02
 -8.034  0.139E-02  0.139E-02
 -8.024  0.171E-02  0.171E-02
 -8.014  0.208E-02  0.208E-02
 -8.004  0.250E-02  0.250E-02
 -7.994  0.298E-02  0.298E-02
 -7.984  0.351E-02  0.351E-02
 -7.974  0.410E-02  0.410E-02
 -7.964  0.473E-02  0.473E-02
 -7.954  0.540E-02  0.540E-02
 -7.944  0.610E-02  0.610E-02
 -7.934  0.682E-02  0.682E-02
 -7.924  0.755E-02  0.755E-02
 -7.914  0.827E-02  0.827E-02
 -7.904  0.896E-02  0.896E-02
 -7.894  0.961E-02  0.961E-02
 -7.884  0.102E-01  0.102E-01
 -7.874  0.107E-01  0.107E-01
 -7.864  0.112E-01  0.112E-01
 -7.854  0.115E-01  0.115E-01
 -7.844  0.117E-01  0.117E-01
 -7.834  0.118E-01  0.118E-01
 -7.824  0.118E-01  0.118E-01
 -7.814  0.116E-01  0.116E-01
 -7.804  0.114E-01  0.114E-01
 -7.794  0.110E-01  0.110E-01
 -7.784  0.106E-01  0.106E-01
 -7.774  0.100E-01  0.100E-01
 -7.764  0.942E-02  0.942E-02
 -7.754  0.876E-02  0.876E-02
 -7.744  0.808E-02  0.808E-02
 -7.734  0.737E-02  0.737E-02
 -7.724  0.666E-02  0.666E-02
 -7.714  0.596E-02  0.596E-02
 -7.704  0.529E-02  0.529E-02
 -7.694  0.464E-02  0.464E-02
 -7.684  0.404E-02  0.404E-02
 -7.674  0.349E-02  0.349E-02
 -7.664  0.298E-02  0.298E-02
 -7.654  0.252E-02  0.252E-02
 -7.644  0.212E-02  0.212E-02
 -7.634  0.177E-02  0.177E-02
 -7.624  0.146E-02  0.146E-02
 -7.614  0.119E-02  0.119E-02
 -7.604  0.970E-03  0.970E-03
 -7.594  0.782E-03  0.782E-03
 -7.584  0.626E-03  0.626E-03
 -7.574  0.497E-03  0.497E-03
 -7.564  0.391E-03  0.391E-03
 -7.554  0.306E-03  0.306E-03
 -7.544  0.238E-03  0.238E-03
 -7.534  0.184E-03  0.184E-03
 -7.524  0.141E-03  0.141E-03
 -7.514  0.107E-03  0.107E-03
 -7.504  0.811E-04  0.811E-04
 -7.494  0.609E-04  0.609E-04
 -7.484  0.455E-04  0.455E-04
 -7.474  0.337E-04  0.337E-04
 -7.464  0.249E-04  0.249E-04
 -7.454  0.182E-04  0.182E-04
 -7.444  0.132E-04  0.132E-04
 -7.434  0.956E-05  0.956E-05
 -7.424  0.686E-05  0.686E-05
 -7.414  0.489E-05  0.489E-05
 -7.404  0.346E-05  0.346E-05
 -7.394  0.243E-05  0.243E-05
 -7.384  0.169E-05  0.169E-05
 -7.374  0.117E-05  0.117E-05
 -7.364  0.802E-06  0.802E-06
 -7.354  0.546E-06  0.546E-06
 -7.344  0.368E-06  0.368E-06
 -7.334  0.246E-06  0.246E-06
 -7.324  0.163E-06  0.163E-06
 -7.314  0.107E-06  0.107E-06
 -7.304  0.701E-07  0.701E-07
 -7.294  0.453E-07  0.453E-07
 -7.284  0.290E-07  0.290E-07
 -7.274  0.184E-07  0.184E-07
 -7.264  0.115E-07  0.115E-07
 -7.254  0.718E-08  0.718E-08
 -7.244  0.442E-08  0.442E-08
 -7.234  0.270E-08  0.270E-08
 -7.224  0.163E-08  0.163E-08
 -7.214  0.977E-09  0.977E-09
 -7.204  0.579E-09  0.579E-09
 -7.194  0.340E-09  0.340E-09
 -7.184  0.197E-09  0.197E-09
 -7.174  0.113E-09  0.113E-09
 -7.164  0.646E-10  0.646E-10
 -7.154  0.364E-10  0.364E-10
 -7.144  0.203E-10  0.203E-10
 -7.134  0.112E-10  0.112E-10
 -7.124  0.611E-11  0.611E-11
 -7.114  0.330E-11  0.330E-11
 -7.104  0.177E-11  0.177E-11
 -7.094  0.935E-12  0.935E-12
 -7.084  0.489E-12  0.489E-12
 -7.074  0.254E-12  0.254E-12
 -7.064  0.130E-12  0.130E-12
 -7.054  0.662E-13  0.662E-13
 -7.044  0.327E-13  0.327E-13
 -7.034  0.160E-13  0.160E-13
 -7.024  0.785E-14  0.785E-14
 -7.014  0.381E-14  0.381E-14
 -7.004  0.175E-14  0.175E-14
 -6.994  0.684E-15  0.684E-15
 -6.984  0.185E-15  0.185E-15
 -6.974  0.655E-17  0.655E-17
 -6.964  0.420E-30  0.420E-30
 -6.954  0.000E+00  0.000E+00
 -6.944  0.000E+00  0.000E+00
 -6.934  0.000E+00  0.000E+00
 -6.924  0.000E+00  0.000E+00
 -6.914  0.000E+00  0.000E+00
 -6.904  0.000E+00  0.000E+00
 -6.894  0.000E+00  0.000E+00
 -6.884  0.000E+00  0.000E+00
 -6.874  0.000E+00  0.000E+00
 -6.864  0.000E+00  0.000E+00
 -6.854  0.000E+00  0.000E+00
 -6.844  0.000E+00  0.000E+00
 -6.834  0.000E+00  0.000E+00
 -6.824  0.000E+00  0.000E+00
 -6.814  0.000E+00  0.000E+00
 -6.804  0.000E+00  0.000E+00
 -6.794  0.000E+00  0.000E+00
 -6.784  0.000E+00  0.000E+00
 -6.774  0.000E+00  0.000E+00
 -6.764  0.000E+00  0.000E+00
 -6.754  0.000E+00  0.000E+00
 -6.744  0.000E+00  0.000E+00
 -6.734  0.000E+00  0.000E+00
 -6.724  0.000E+00  0.000E+00
 -6.714  0.000E+00  0.000E+00
 -6.704  0.000E+00  0.000E+00
 -6.694  0.000E+00  0.000E+00
 -6.684  0.000E+00  0.000E+00
 -6.674  0.000E+00  0.000E+00
 -6.664  0.000E+00  0.000E+00
 -6.654  0.000E+00  0.000E+00
 -6.644  0.000E+00  0.000E+00
 -6.634  0.000E+00  0.000E+00
 -6.624  0.000E+00  0.000E+00
 -6.614  0.000E+00  0.000E+00
 -6.604  0.000E+00  0.000E+00
 -6.594  0.000E+00  0.000E+00
 -6.584  0.000E+00  0.000E+00
 -6.574  0.000E+00  0.000E+00
 -6.564  0.000E+00  0.000E+00
 -6.554  0.000E+00  0.000E+00
 -6.544  0.000E+00  0.000E+00
 -6.534  0.000E+00  0.000E+00
 -6.524  0.000E+00  0.000E+00
 -6.514  0.000E+00  0.000E+00
 -6.504  0.000E+00  0.000E+00
 -6.494  0.000E+00  0.000E+00
 -6.484  0.000E+00  0.000E+00
 -6.474  0.000E+00  0.000E+00
 -6.464  0.000E+00  0.000E+00
 -6.454  0.000E+00  0.000E+00
 -6.444  0.000E+00  0.000E+00
 -6.434  0.000E+00  0.000E+00
 -6.424  0.000E+00  0.000E+00
 -6.414  0.000E+00  0.000E+00
 -6.404  0.000E+00  0.000E+00
 -6.394  0.000E+00  0.000E+00
 -6.384  0.000E+00  0.000E+00
 -6.374  0.000E+00  0.000E+00
 -6.364  0.000E+00  0.000E+00
 -6.354  0.000E+00  0.000E+00
 -6.344  0.000E+00  0.000E+00
 -6.334  0.000E+00  0.000E+00
 -6.324  0.000E+00  0.000E+00
 -6.314  0.000E+00  0.000E+00
 -6.304  0.000E+00  0.000E+00
 -6.294  0.000E+00  0.000E+00
 -6.284  0.000E+00  0.000E+00
 -6.274  0.000E+00  0.000E+00
 -6.264  0.000E+00  0.000E+00
 -6.254  0.223E-14  0.223E-14
 -6.244  0.468E-14  0.468E-14
 -6.234  0.971E-14  0.971E-14
 -6.224  0.524E-13  0.524E-13
 -6.214  0.108E-12  0.108E-12
 -6.204  0.222E-12  0.222E-12
 -6.194  0.449E-12  0.449E-12
 -6.184  0.927E-12  0.927E-12
 -6.174  0.184E-11  0.184E-11
 -6.164  0.362E-11  0.362E-11
 -6.154  0.713E-11  0.713E-11
 -6.144  0.137E-10  0.137E-10
 -6.134  0.262E-10  0.262E-10
 -6.124  0.494E-10  0.494E-10
 -6.114  0.922E-10  0.922E-10
 -6.104  0.170E-09  0.170E-09
 -6.094  0.312E-09  0.312E-09
 -6.084  0.565E-09  0.565E-09
 -6.074  0.101E-08  0.101E-08
 -6.064  0.179E-08  0.179E-08
 -6.054  0.315E-08  0.315E-08
 -6.044  0.547E-08  0.547E-08
 -6.034  0.940E-08  0.940E-08
 -6.024  0.160E-07  0.160E-07
 -6.014  0.269E-07  0.269E-07
 -6.004  0.449E-07  0.449E-07
 -5.994  0.741E-07  0.741E-07
 -5.984  0.121E-06  0.121E-06
 -5.974  0.196E-06  0.196E-06
 -5.964  0.313E-06  0.313E-06
 -5.954  0.496E-06  0.496E-06
 -5.944  0.778E-06  0.778E-06
 -5.934  0.121E-05  0.121E-05
 -5.924  0.186E-05  0.186E-05
 -5.914  0.282E-05  0.282E-05
 -5.904  0.425E-05  0.425E-05
 -5.894  0.634E-05  0.634E-05
 -5.884  0.937E-05  0.937E-05
 -5.874  0.137E-04  0.137E-04
 -5.864  0.198E-04  0.198E-04
 -5.854  0.284E-04  0.284E-04
 -5.844  0.403E-04  0.403E-04
 -5.834  0.567E-04  0.567E-04
 -5.824  0.790E-04  0.790E-04
 -5.814  0.109E-03  0.109E-03
 -5.804  0.149E-03  0.149E-03
 -5.794  0.201E-03  0.201E-03
 -5.784  0.270E-03  0.270E-03
 -5.774  0.358E-03  0.358E-03
 -5.764  0.470E-03  0.470E-03
 -5.754  0.613E-03  0.613E-03
 -5.744  0.791E-03  0.791E-03
 -5.734  0.101E-02  0.101E-02
 -5.724  0.128E-02  0.128E-02
 -5.714  0.161E-02  0.161E-02
 -5.704  0.201E-02  0.201E-02
 -5.694  0.248E-02  0.248E-02
 -5.684  0.303E-02  0.303E-02
 -5.674  0.368E-02  0.368E-02
 -5.664  0.443E-02  0.443E-02
 -5.654  0.528E-02  0.528E-02
 -5.644  0.625E-02  0.625E-02
 -5.634  0.734E-02  0.734E-02
 -5.624  0.855E-02  0.855E-02
 -5.614  0.989E-02  0.989E-02
 -5.604  0.113E-01  0.113E-01
 -5.594  0.129E-01  0.129E-01
 -5.584  0.146E-01  0.146E-01
 -5.574  0.164E-01  0.164E-01
 -5.564  0.183E-01  0.183E-01
 -5.554  0.203E-01  0.203E-01
 -5.544  0.223E-01  0.223E-01
 -5.534  0.244E-01  0.244E-01
 -5.524  0.266E-01  0.266E-01
 -5.514  0.288E-01  0.288E-01
 -5.504  0.309E-01  0.309E-01
 -5.494  0.331E-01  0.331E-01
 -5.484  0.353E-01  0.353E-01
 -5.474  0.374E-01  0.374E-01
 -5.464  0.395E-01  0.395E-01
 -5.454  0.416E-01  0.416E-01
 -5.444  0.436E-01  0.436E-01
 -5.434  0.455E-01  0.455E-01
 -5.424  0.473E-01  0.473E-01
 -5.414  0.491E-01  0.491E-01
 -5.404  0.508E-01  0.508E-01
 -5.394  0.524E-01  0.524E-01
 -5.384  0.540E-01  0.540E-01
 -5.374  0.554E-01  0.554E-01
 -5.364  0.568E-01  0.568E-01
 -5.354  0.582E-01  0.582E-01
 -5.344  0.594E-01  0.594E-01
 -5.334  0.607E-01  0.607E-01
 -5.324  0.618E-01  0.618E-01
 -5.314  0.629E-01  0.629E-01
 -5.304  0.640E-01  0.640E-01
 -5.294  0.650E-01  0.650E-01
 -5.284  0.659E-01  0.659E-01
 -5.274  0.668E-01  0.668E-01
 -5.264  0.677E-01  0.677E-01
 -5.254  0.686E-01  0.686E-01
 -5.244  0.694E-01  0.694E-01
 -5.234  0.702E-01  0.702E-01
 -5.224  0.709E-01  0.709E-01
 -5.214  0.717E-01  0.717E-01
 -5.204  0.724E-01  0.724E-01
 -5.194  0.731E-01  0.731E-01
 -5.184  0.738E-01  0.738E-01
 -5.174  0.745E-01  0.745E-01
 -5.164  0.752E-01  0.752E-01
 -5.154  0.758E-01  0.758E-01
 -5.144  0.765E-01  0.765E-01
 -5.134  0.771E-01  0.771E-01
 -5.124  0.777E-01  0.777E-01
 -5.114  0.782E-01  0.782E-01
 -5.104  0.788E-01  0.788E-01
 -5.094  0.793E-01  0.793E-01
 -5.084  0.798E-01  0.798E-01
 -5.074  0.803E-01  0.803E-01
 -5.064  0.807E-01  0.807E-01
 -5.054  0.812E-01  0.812E-01
 -5.044  0.817E-01  0.817E-01
 -5.034  0.821E-01  0.821E-01
 -5.024  0.826E-01  0.826E-01
 -5.014  0.831E-01  0.831E-01
 -5.004  0.836E-01  0.836E-01
 -4.994  0.841E-01  0.841E-01
 -4.984  0.847E-01  0.847E-01
 -4.974  0.852E-01  0.852E-01
 -4.964  0.857E-01  0.857E-01
 -4.954  0.862E-01  0.862E-01
 -4.944  0.867E-01  0.867E-01
 -4.934  0.871E-01  0.871E-01
 -4.924  0.875E-01  0.875E-01
 -4.914  0.879E-01  0.879E-01
 -4.904  0.883E-01  0.883E-01
 -4.894  0.886E-01  0.886E-01
 -4.884  0.889E-01  0.889E-01
 -4.874  0.892E-01  0.892E-01
 -4.864  0.894E-01  0.894E-01
 -4.854  0.897E-01  0.897E-01
 -4.844  0.900E-01  0.900E-01
 -4.834  0.903E-01  0.903E-01
 -4.824  0.907E-01  0.907E-01
 -4.814  0.910E-01  0.910E-01
 -4.804  0.914E-01  0.914E-01
 -4.794  0.919E-01  0.919E-01
 -4.784  0.924E-01  0.924E-01
 -4.774  0.929E-01  0.929E-01
 -4.764  0.934E-01  0.934E-01
 -4.754  0.939E-01  0.939E-01
 -4.744  0.944E-01  0.944E-01
 -4.734  0.949E-01  0.949E-01
 -4.724  0.953E-01  0.953E-01
 -4.714  0.957E-01  0.957E-01
 -4.704  0.961E-01  0.961E-01
 -4.694  0.963E-01  0.963E-01
 -4.684  0.966E-01  0.966E-01
 -4.674  0.968E-01  0.968E-01
 -4.664  0.969E-01  0.969E-01
 -4.654  0.971E-01  0.971E-01
 -4.644  0.972E-01  0.972E-01
 -4.634  0.973E-01  0.973E-01
 -4.624  0.974E-01  0.974E-01
 -4.614  0.976E-01  0.976E-01
 -4.604  0.979E-01  0.979E-01
 -4.594  0.982E-01  0.982E-01
 -4.584  0.985E-01  0.985E-01
 -4.574  0.990E-01  0.990E-01
 -4.564  0.994E-01  0.994E-01
 -4.554  0.100E+00  0.100E+00
 -4.544  0.101E+00  0.101E+00
 -4.534  0.101E+00  0.101E+00
 -4.524  0.102E+00  0.102E+00
 -4.514  0.102E+00  0.102E+00
 -4.504  0.103E+00  0.103E+00
 -4.494  0.103E+00  0.103E+00
 -4.484  0.104E+00  0.104E+00
 -4.474  0.104E+00  0.104E+00
 -4.464  0.104E+00  0.104E+00
 -4.454  0.105E+00  0.105E+00
 -4.444  0.105E+00  0.105E+00
 -4.434  0.105E+00  0.105E+00
 -4.424  0.105E+00  0.105E+00
 -4.414  0.105E+00  0.105E+00
 -4.404  0.105E+00  0.105E+00
 -4.394  0.105E+00  0.105E+00
 -4.384  0.105E+00  0.105E+00
 -4.374  0.105E+00  0.105E+00
 -4.364  0.105E+00  0.105E+00
 -4.354  0.106E+00  0.106E+00
 -4.344  0.106E+00  0.106E+00
 -4.334  0.106E+00  0.106E+00
 -4.324  0.107E+00  0.107E+00
 -4.314  0.107E+00  0.107E+00
 -4.304  0.108E+00  0.108E+00
 -4.294  0.109E+00  0.109E+00
 -4.284  0.109E+00  0.109E+00
 -4.274  0.110E+00  0.110E+00
 -4.264  0.111E+00  0.111E+00
 -4.254  0.111E+00  0.111E+00
 -4.244  0.112E+00  0.112E+00
 -4.234  0.112E+00  0.112E+00
 -4.224  0.113E+00  0.113E+00
 -4.214  0.113E+00  0.113E+00
 -4.204  0.113E+00  0.113E+00
 -4.194  0.114E+00  0.114E+00
 -4.184  0.114E+00  0.114E+00
 -4.174  0.114E+00  0.114E+00
 -4.164  0.114E+00  0.114E+00
 -4.154  0.114E+00  0.114E+00
 -4.144  0.114E+00  0.114E+00
 -4.134  0.114E+00  0.114E+00
 -4.124  0.114E+00  0.114E+00
 -4.114  0.114E+00  0.114E+00
 -4.104  0.114E+00  0.114E+00
 -4.094  0.115E+00  0.115E+00
 -4.084  0.115E+00  0.115E+00
 -4.074  0.116E+00  0.116E+00
 -4.064  0.116E+00  0.116E+00
 -4.054  0.117E+00  0.117E+00
 -4.044  0.118E+00  0.118E+00
 -4.034  0.119E+00  0.119E+00
 -4.024  0.120E+00  0.120E+00
 -4.014  0.121E+00  0.121E+00
 -4.004  0.121E+00  0.121E+00
 -3.994  0.122E+00  0.122E+00
 -3.984  0.123E+00  0.123E+00
 -3.974  0.124E+00  0.124E+00
 -3.964  0.124E+00  0.124E+00
 -3.954  0.125E+00  0.125E+00
 -3.944  0.125E+00  0.125E+00
 -3.934  0.126E+00  0.126E+00
 -3.924  0.126E+00  0.126E+00
 -3.914  0.126E+00  0.126E+00
 -3.904  0.126E+00  0.126E+00
 -3.894  0.127E+00  0.127E+00
 -3.884  0.127E+00  0.127E+00
 -3.874  0.127E+00  0.127E+00
 -3.864  0.128E+00  0.128E+00
 -3.854  0.128E+00  0.128E+00
 -3.844  0.129E+00  0.129E+00
 -3.834  0.130E+00  0.130E+00
 -3.824  0.130E+00  0.130E+00
 -3.814  0.132E+00  0.132E+00
 -3.804  0.133E+00  0.133E+00
 -3.794  0.134E+00  0.134E+00
 -3.784  0.136E+00  0.136E+00
 -3.774  0.137E+00  0.137E+00
 -3.764  0.139E+00  0.139E+00
 -3.754  0.141E+00  0.141E+00
 -3.744  0.142E+00  0.142E+00
 -3.734  0.144E+00  0.144E+00
 -3.724  0.145E+00  0.145E+00
 -3.714  0.147E+00  0.147E+00
 -3.704  0.149E+00  0.149E+00
 -3.694  0.150E+00  0.150E+00
 -3.684  0.151E+00  0.151E+00
 -3.674  0.152E+00  0.152E+00
 -3.664  0.154E+00  0.154E+00
 -3.654  0.155E+00  0.155E+00
 -3.644  0.156E+00  0.156E+00
 -3.634  0.157E+00  0.157E+00
 -3.624  0.158E+00  0.158E+00
 -3.614  0.158E+00  0.158E+00
 -3.604  0.159E+00  0.159E+00
 -3.594  0.160E+00  0.160E+00
 -3.584  0.161E+00  0.161E+00
 -3.574  0.161E+00  0.161E+00
 -3.564  0.162E+00  0.162E+00
 -3.554  0.162E+00  0.162E+00
 -3.544  0.163E+00  0.163E+00
 -3.534  0.163E+00  0.163E+00
 -3.524  0.163E+00  0.163E+00
 -3.514  0.163E+00  0.163E+00
 -3.504  0.162E+00  0.162E+00
 -3.494  0.162E+00  0.162E+00
 -3.484  0.161E+00  0.161E+00
 -3.474  0.160E+00  0.160E+00
 -3.464  0.159E+00  0.159E+00
 -3.454  0.157E+00  0.157E+00
 -3.444  0.156E+00  0.156E+00
 -3.434  0.154E+00  0.154E+00
 -3.424  0.152E+00  0.152E+00
 -3.414  0.151E+00  0.151E+00
 -3.404  0.149E+00  0.149E+00
 -3.394  0.147E+00  0.147E+00
 -3.384  0.145E+00  0.145E+00
 -3.374  0.143E+00  0.143E+00
 -3.364  0.141E+00  0.141E+00
 -3.354  0.139E+00  0.139E+00
 -3.344  0.137E+00  0.137E+00
 -3.334  0.136E+00  0.136E+00
 -3.324  0.134E+00  0.134E+00
 -3.314  0.132E+00  0.132E+00
 -3.304  0.130E+00  0.130E+00
 -3.294  0.129E+00  0.129E+00
 -3.284  0.127E+00  0.127E+00
 -3.274  0.125E+00  0.125E+00
 -3.264  0.124E+00  0.124E+00
 -3.254  0.122E+00  0.122E+00
 -3.244  0.120E+00  0.120E+00
 -3.234  0.118E+00  0.118E+00
 -3.224  0.116E+00  0.116E+00
 -3.214  0.114E+00  0.114E+00
 -3.204  0.113E+00  0.113E+00
 -3.194  0.111E+00  0.111E+00
 -3.184  0.109E+00  0.109E+00
 -3.174  0.107E+00  0.107E+00
 -3.164  0.105E+00  0.105E+00
 -3.154  0.103E+00  0.103E+00
 -3.144  0.101E+00  0.101E+00
 -3.134  0.994E-01  0.994E-01
 -3.124  0.976E-01  0.976E-01
 -3.114  0.957E-01  0.957E-01
 -3.104  0.939E-01  0.939E-01
 -3.094  0.921E-01  0.921E-01
 -3.084  0.903E-01  0.903E-01
 -3.074  0.884E-01  0.884E-01
 -3.064  0.866E-01  0.866E-01
 -3.054  0.848E-01  0.848E-01
 -3.044  0.829E-01  0.829E-01
 -3.034  0.811E-01  0.811E-01
 -3.024  0.792E-01  0.792E-01
 -3.014  0.773E-01  0.773E-01
 -3.004  0.754E-01  0.754E-01
 -2.994  0.735E-01  0.735E-01
 -2.984  0.716E-01  0.716E-01
 -2.974  0.696E-01  0.696E-01
 -2.964  0.677E-01  0.677E-01
 -2.954  0.657E-01  0.657E-01
 -2.944  0.637E-01  0.637E-01
 -2.934  0.617E-01  0.617E-01
 -2.924  0.597E-01  0.597E-01
 -2.914  0.577E-01  0.577E-01
 -2.904  0.557E-01  0.557E-01
 -2.894  0.536E-01  0.536E-01
 -2.884  0.515E-01  0.515E-01
 -2.874  0.494E-01  0.494E-01
 -2.864  0.473E-01  0.473E-01
 -2.854  0.452E-01  0.452E-01
 -2.844  0.431E-01  0.431E-01
 -2.834  0.409E-01  0.409E-01
 -2.824  0.388E-01  0.388E-01
 -2.814  0.366E-01  0.366E-01
 -2.804  0.345E-01  0.345E-01
 -2.794  0.323E-01  0.323E-01
 -2.784  0.302E-01  0.302E-01
 -2.774  0.281E-01  0.281E-01
 -2.764  0.261E-01  0.261E-01
 -2.754  0.241E-01  0.241E-01
 -2.744  0.221E-01  0.221E-01
 -2.734  0.202E-01  0.202E-01
 -2.724  0.184E-01  0.184E-01
 -2.714  0.166E-01  0.166E-01
 -2.704  0.149E-01  0.149E-01
 -2.694  0.134E-01  0.134E-01
 -2.684  0.119E-01  0.119E-01
 -2.674  0.105E-01  0.105E-01
 -2.664  0.921E-02  0.921E-02
 -2.654  0.803E-02  0.803E-02
 -2.644  0.695E-02  0.695E-02
 -2.634  0.598E-02  0.598E-02
 -2.624  0.511E-02  0.511E-02
 -2.614  0.433E-02  0.433E-02
 -2.604  0.364E-02  0.364E-02
 -2.594  0.304E-02  0.304E-02
 -2.584  0.252E-02  0.252E-02
 -2.574  0.208E-02  0.208E-02
 -2.564  0.169E-02  0.169E-02
 -2.554  0.137E-02  0.137E-02
 -2.544  0.110E-02  0.110E-02
 -2.534  0.876E-03  0.876E-03
 -2.524  0.692E-03  0.692E-03
 -2.514  0.542E-03  0.542E-03
 -2.504  0.420E-03  0.420E-03
 -2.494  0.324E-03  0.324E-03
 -2.484  0.247E-03  0.247E-03
 -2.474  0.187E-03  0.187E-03
 -2.464  0.140E-03  0.140E-03
 -2.454  0.104E-03  0.104E-03
 -2.444  0.766E-04  0.766E-04
 -2.434  0.559E-04  0.559E-04
 -2.424  0.404E-04  0.404E-04
 -2.414  0.290E-04  0.290E-04
 -2.404  0.206E-04  0.206E-04
 -2.394  0.145E-04  0.145E-04
 -2.384  0.101E-04  0.101E-04
 -2.374  0.695E-05  0.695E-05
 -2.364  0.475E-05  0.475E-05
 -2.354  0.322E-05  0.322E-05
 -2.344  0.216E-05  0.216E-05
 -2.334  0.144E-05  0.144E-05
 -2.324  0.945E-06  0.945E-06
 -2.314  0.616E-06  0.616E-06
 -2.304  0.397E-06  0.397E-06
 -2.294  0.254E-06  0.254E-06
 -2.284  0.161E-06  0.161E-06
 -2.274  0.101E-06  0.101E-06
 -2.264  0.625E-07  0.625E-07
 -2.254  0.384E-07  0.384E-07
 -2.244  0.234E-07  0.234E-07
 -2.234  0.141E-07  0.141E-07
 -2.224  0.839E-08  0.839E-08
 -2.214  0.495E-08  0.495E-08
 -2.204  0.290E-08  0.290E-08
 -2.194  0.168E-08  0.168E-08
 -2.184  0.960E-09  0.960E-09
 -2.174  0.544E-09  0.544E-09
 -2.164  0.305E-09  0.305E-09
 -2.154  0.170E-09  0.170E-09
 -2.144  0.932E-10  0.932E-10
 -2.134  0.507E-10  0.507E-10
 -2.124  0.273E-10  0.273E-10
 -2.114  0.146E-10  0.146E-10
 -2.104  0.768E-11  0.768E-11
 -2.094  0.401E-11  0.401E-11
 -2.084  0.207E-11  0.207E-11
 -2.074  0.106E-11  0.106E-11
 -2.064  0.531E-12  0.531E-12
 -2.054  0.262E-12  0.262E-12
 -2.044  0.126E-12  0.126E-12
 -2.034  0.610E-13  0.610E-13
 -2.024  0.285E-13  0.285E-13
 -2.014  0.137E-13  0.137E-13
 -2.004  0.496E-14  0.496E-14
 -1.994  0.912E-15  0.912E-15
 -1.984  0.138E-26  0.138E-26
 -1.974  0.619E-27  0.619E-27
 -1.964  0.294E-27  0.294E-27
 -1.954  0.000E+00  0.000E+00
 -1.944  0.000E+00  0.000E+00
 -1.934  0.000E+00  0.000E+00
 -1.924  0.000E+00  0.000E+00
 -1.914  0.000E+00  0.000E+00
 -1.904  0.000E+00  0.000E+00
 -1.894  0.000E+00  0.000E+00
 -1.884  0.000E+00  0.000E+00
 -1.874  0.000E+00  0.000E+00
 -1.864  0.000E+00  0.000E+00
 -1.854  0.000E+00  0.000E+00
 -1.844  0.000E+00  0.000E+00
 -1.834  0.000E+00  0.000E+00
 -1.824  0.000E+00  0.000E+00
 -1.814  0.000E+00  0.000E+00
 -1.804  0.000E+00  0.000E+00
 -1.794  0.000E+00  0.000E+00
 -1.784  0.000E+00  0.000E+00
 -1.774  0.000E+00  0.000E+00
 -1.764  0.000E+00  0.000E+00
 -1.754  0.000E+00  0.000E+00
 -1.744  0.000E+00  0.000E+00
 -1.734  0.000E+00  0.000E+00
 -1.724  0.000E+00  0.000E+00
 -1.714  0.000E+00  0.000E+00
 -1.704  0.000E+00  0.000E+00
 -1.694  0.000E+00  0.000E+00
 -1.684  0.000E+00  0.000E+00
 -1.674  0.000E+00  0.000E+00
 -1.664  0.000E+00  0.000E+00
 -1.654  0.000E+00  0.000E+00
 -1.644  0.000E+00  0.000E+00
 -1.634  0.000E+00  0.000E+00
 -1.624  0.000E+00  0.000E+00
 -1.614  0.000E+00  0.000E+00
 -1.604  0.000E+00  0.000E+00
 -1.594  0.000E+00  0.000E+00
 -1.584  0.000E+00  0.000E+00
 -1.574  0.000E+00  0.000E+00
 -1.564  0.000E+00  0.000E+00
 -1.554  0.000E+00  0.000E+00
 -1.544  0.000E+00  0.000E+00
 -1.534  0.000E+00  0.000E+00
 -1.524  0.000E+00  0.000E+00
 -1.514  0.000E+00  0.000E+00
 -1.504  0.000E+00  0.000E+00
 -1.494  0.000E+00  0.000E+00
 -1.484  0.000E+00  0.000E+00
 -1.474  0.000E+00  0.000E+00
 -1.464  0.000E+00  0.000E+00
 -1.454  0.000E+00  0.000E+00
 -1.444  0.000E+00  0.000E+00
 -1.434  0.000E+00  0.000E+00
 -1.424  0.000E+00  0.000E+00
 -1.414  0.000E+00  0.000E+00
 -1.404  0.000E+00  0.000E+00
 -1.394  0.000E+00  0.000E+00
 -1.384  0.000E+00  0.000E+00
 -1.374  0.000E+00  0.000E+00
 -1.364  0.000E+00  0.000E+00
 -1.354  0.000E+00  0.000E+00
 -1.344  0.000E+00  0.000E+00
 -1.334  0.000E+00  0.000E+00
 -1.324  0.000E+00  0.000E+00
 -1.314  0.000E+00  0.000E+00
 -1.304  0.000E+00  0.000E+00
 -1.294  0.000E+00  0.000E+00
 -1.284  0.000E+00  0.000E+00
 -1.274  0.000E+00  0.000E+00
 -1.264  0.000E+00  0.000E+00
 -1.254  0.000E+00  0.000E+00
 -1.244  0.000E+00  0.000E+00
 -1.234  0.000E+00  0.000E+00
 -1.224  0.000E+00  0.000E+00
 -1.214  0.000E+00  0.000E+00
 -1.204  0.000E+00  0.000E+00
 -1.194  0.000E+00  0.000E+00
 -1.184  0.000E+00  0.000E+00
 -1.174  0.000E+00  0.000E+00
 -1.164  0.000E+00  0.000E+00
 -1.154  0.000E+00  0.000E+00
 -1.144  0.000E+00  0.000E+00
 -1.134  0.000E+00  0.000E+00
 -1.124  0.000E+00  0.000E+00
 -1.114  0.000E+00  0.000E+00
 -1.104  0.000E+00  0.000E+00
 -1.094  0.000E+00  0.000E+00
 -1.084  0.000E+00  0.000E+00
 -1.074  0.000E+00  0.000E+00
 -1.064  0.000E+00  0.000E+00
 -1.054  0.000E+00  0.000E+00
 -1.044  0.000E+00  0.000E+00
 -1.034  0.000E+00  0.000E+00
 -1.024  0.000E+00  0.000E+00
 -1.014  0.000E+00  0.000E+00
 -1.004  0.000E+00  0.000E+00
 -0.994  0.000E+00  0.000E+00
 -0.984  0.000E+00  0.000E+00
 -0.974  0.000E+00  0.000E+00
 -0.964  0.000E+00  0.000E+00
 -0.954  0.000E+00  0.000E+00
 -0.944  0.000E+00  0.000E+00
 -0.934  0.000E+00  0.000E+00
 -0.924  0.000E+00  0.000E+00
 -0.914  0.000E+00  0.000E+00
 -0.904  0.000E+00  0.000E+00
 -0.894  0.000E+00  0.000E+00
 -0.884  0.000E+00  0.000E+00
 -0.874  0.000E+00  0.000E+00
 -0.864  0.000E+00  0.000E+00
 -0.854  0.000E+00  0.000E+00
 -0.844  0.000E+00  0.000E+00
 -0.834  0.000E+00  0.000E+00
 -0.824  0.000E+00  0.000E+00
 -0.814  0.000E+00  0.000E+00
 -0.804  0.000E+00  0.000E+00
 -0.794  0.000E+00  0.000E+00
 -0.784  0.000E+00  0.000E+00
 -0.774  0.000E+00  0.000E+00
 -0.764  0.000E+00  0.000E+00
 -0.754  0.000E+00  0.000E+00
 -0.744  0.000E+00  0.000E+00
 -0.734  0.000E+00  0.000E+00
 -0.724  0.000E+00  0.000E+00
 -0.714  0.000E+00  0.000E+00
 -0.704  0.000E+00  0.000E+00
 -0.694  0.000E+00  0.000E+00
 -0.684  0.000E+00  0.000E+00
 -0.674  0.000E+00  0.000E+00
 -0.664  0.000E+00  0.000E+00
 -0.654  0.000E+00  0.000E+00
 -0.644  0.000E+00  0.000E+00
 -0.634  0.000E+00  0.000E+00
 -0.624  0.000E+00  0.000E+00
 -0.614  0.000E+00  0.000E+00
 -0.604  0.000E+00  0.000E+00
 -0.594  0.991E-14  0.991E-14
 -0.584  0.510E-13  0.510E-13
 -0.574  0.129E-12  0.129E-12
 -0.564  0.268E-12  0.268E-12
 -0.554  0.549E-12  0.549E-12
 -0.544  0.122E-11  0.122E-11
 -0.534  0.252E-11  0.252E-11
 -0.524  0.514E-11  0.514E-11
 -0.514  0.101E-10  0.101E-10
 -0.504  0.199E-10  0.199E-10
 -0.494  0.386E-10  0.386E-10
 -0.484  0.740E-10  0.740E-10
 -0.474  0.140E-09  0.140E-09
 -0.464  0.264E-09  0.264E-09
 -0.454  0.490E-09  0.490E-09
 -0.444  0.901E-09  0.901E-09
 -0.434  0.164E-08  0.164E-08
 -0.424  0.296E-08  0.296E-08
 -0.414  0.527E-08  0.527E-08
 -0.404  0.931E-08  0.931E-08
 -0.394  0.163E-07  0.163E-07
 -0.384  0.281E-07  0.281E-07
 -0.374  0.482E-07  0.482E-07
 -0.364  0.817E-07  0.817E-07
 -0.354  0.137E-06  0.137E-06
 -0.344  0.228E-06  0.228E-06
 -0.334  0.375E-06  0.375E-06
 -0.324  0.610E-06  0.610E-06
 -0.314  0.984E-06  0.984E-06
 -0.304  0.157E-05  0.157E-05
 -0.294  0.248E-05  0.248E-05
 -0.284  0.389E-05  0.389E-05
 -0.274  0.602E-05  0.602E-05
 -0.264  0.924E-05  0.924E-05
 -0.254  0.140E-04  0.140E-04
 -0.244  0.211E-04  0.211E-04
 -0.234  0.315E-04  0.315E-04
 -0.224  0.465E-04  0.465E-04
 -0.214  0.680E-04  0.680E-04
 -0.204  0.985E-04  0.985E-04
 -0.194  0.141E-03  0.141E-03
 -0.184  0.201E-03  0.201E-03
 -0.174  0.282E-03  0.282E-03
 -0.164  0.394E-03  0.394E-03
 -0.154  0.544E-03  0.544E-03
 -0.144  0.744E-03  0.744E-03
 -0.134  0.101E-02  0.101E-02
 -0.124  0.136E-02  0.136E-02
 -0.114  0.181E-02  0.181E-02
 -0.104  0.239E-02  0.239E-02
 -0.094  0.312E-02  0.312E-02
 -0.084  0.405E-02  0.405E-02
 -0.074  0.521E-02  0.521E-02
 -0.064  0.664E-02  0.664E-02
 -0.054  0.839E-02  0.839E-02
 -0.044  0.105E-01  0.105E-01
 -0.034  0.131E-01  0.131E-01
 -0.024  0.162E-01  0.162E-01
 -0.014  0.198E-01  0.198E-01
 -0.004  0.240E-01  0.240E-01
  0.006  0.290E-01  0.290E-01
  0.016  0.347E-01  0.347E-01
  0.026  0.413E-01  0.413E-01
  0.036  0.488E-01  0.488E-01
  0.046  0.572E-01  0.572E-01
  0.056  0.667E-01  0.667E-01
  0.066  0.772E-01  0.772E-01
  0.076  0.889E-01  0.889E-01
  0.086  0.102E+00  0.102E+00
  0.096  0.116E+00  0.116E+00
  0.106  0.131E+00  0.131E+00
  0.116  0.148E+00  0.148E+00
  0.126  0.166E+00  0.166E+00
  0.136  0.185E+00  0.185E+00
  0.146  0.206E+00  0.206E+00
  0.156  0.227E+00  0.227E+00
  0.166  0.250E+00  0.250E+00
  0.176  0.274E+00  0.274E+00
  0.186  0.300E+00  0.300E+00
  0.196  0.326E+00  0.326E+00
  0.206  0.353E+00  0.353E+00
  0.216  0.381E+00  0.381E+00
  0.226  0.410E+00  0.410E+00
  0.236  0.440E+00  0.440E+00
  0.246  0.470E+00  0.470E+00
  0.256  0.500E+00  0.500E+00
  0.266  0.530E+00  0.530E+00
  0.276  0.560E+00  0.560E+00
  0.286  0.590E+00  0.590E+00
  0.296  0.620E+00  0.620E+00
  0.306  0.649E+00  0.649E+00
  0.316  0.677E+00  0.677E+00
  0.326  0.704E+00  0.704E+00
  0.336  0.729E+00  0.729E+00
  0.346  0.753E+00  0.753E+00
  0.356  0.775E+00  0.775E+00
  0.366  0.795E+00  0.795E+00
  0.376  0.812E+00  0.812E+00
  0.386  0.827E+00  0.827E+00
  0.396  0.839E+00  0.839E+00
  0.406  0.849E+00  0.849E+00
  0.416  0.855E+00  0.855E+00
  0.426  0.858E+00  0.858E+00
  0.436  0.858E+00  0.858E+00
  0.446  0.854E+00  0.854E+00
  0.456  0.848E+00  0.848E+00
  0.466  0.838E+00  0.838E+00
  0.476  0.826E+00  0.826E+00
  0.486  0.811E+00  0.811E+00
  0.496  0.795E+00  0.795E+00
  0.506  0.776E+00  0.776E+00
  0.516  0.756E+00  0.756E+00
  0.526  0.734E+00  0.734E+00
  0.536  0.712E+00  0.712E+00
  0.546  0.689E+00  0.689E+00
  0.556  0.667E+00  0.667E+00
  0.566  0.644E+00  0.644E+00
  0.576  0.622E+00  0.622E+00
  0.586  0.600E+00  0.600E+00
  0.596  0.579E+00  0.579E+00
  0.606  0.559E+00  0.559E+00
  0.616  0.540E+00  0.540E+00
  0.626  0.521E+00  0.521E+00
  0.636  0.504E+00  0.504E+00
  0.646  0.487E+00  0.487E+00
  0.656  0.472E+00  0.472E+00
  0.666  0.457E+00  0.457E+00
  0.676  0.443E+00  0.443E+00
  0.686  0.430E+00  0.430E+00
  0.696  0.417E+00  0.417E+00
  0.706  0.405E+00  0.405E+00
  0.716  0.394E+00  0.394E+00
  0.726  0.383E+00  0.383E+00
  0.736  0.372E+00  0.372E+00
  0.746  0.363E+00  0.363E+00
  0.756  0.353E+00  0.353E+00
  0.766  0.345E+00  0.345E+00
  0.776  0.336E+00  0.336E+00
  0.786  0.328E+00  0.328E+00
  0.796  0.321E+00  0.321E+00
  0.806  0.314E+00  0.314E+00
  0.816  0.307E+00  0.307E+00
  0.826  0.301E+00  0.301E+00
  0.836  0.296E+00  0.296E+00
  0.846  0.290E+00  0.290E+00
  0.856  0.285E+00  0.285E+00
  0.866  0.281E+00  0.281E+00
  0.876  0.276E+00  0.276E+00
  0.886  0.272E+00  0.272E+00
  0.896  0.268E+00  0.268E+00
  0.906  0.265E+00  0.265E+00
  0.916  0.261E+00  0.261E+00
  0.926  0.258E+00  0.258E+00
  0.936  0.254E+00  0.254E+00
  0.946  0.251E+00  0.251E+00
  0.956  0.247E+00  0.247E+00
  0.966  0.243E+00  0.243E+00
  0.976  0.240E+00  0.240E+00
  0.986  0.236E+00  0.236E+00
  0.996  0.232E+00  0.232E+00
  1.006  0.228E+00  0.228E+00
  1.016  0.224E+00  0.224E+00
  1.026  0.220E+00  0.220E+00
  1.036  0.216E+00  0.216E+00
  1.046  0.212E+00  0.212E+00
  1.056  0.208E+00  0.208E+00
  1.066  0.204E+00  0.204E+00
  1.076  0.201E+00  0.201E+00
  1.086  0.198E+00  0.198E+00
  1.096  0.194E+00  0.194E+00
  1.106  0.192E+00  0.192E+00
  1.116  0.189E+00  0.189E+00
  1.126  0.187E+00  0.187E+00
  1.136  0.185E+00  0.185E+00
  1.146  0.183E+00  0.183E+00
  1.156  0.182E+00  0.182E+00
  1.166  0.180E+00  0.180E+00
  1.176  0.179E+00  0.179E+00
  1.186  0.178E+00  0.178E+00
  1.196  0.177E+00  0.177E+00
  1.206  0.176E+00  0.176E+00
  1.216  0.174E+00  0.174E+00
  1.226  0.173E+00  0.173E+00
  1.236  0.171E+00  0.171E+00
  1.246  0.170E+00  0.170E+00
  1.256  0.168E+00  0.168E+00
  1.266  0.166E+00  0.166E+00
  1.276  0.164E+00  0.164E+00
  1.286  0.162E+00  0.162E+00
  1.296  0.160E+00  0.160E+00
  1.306  0.157E+00  0.157E+00
  1.316  0.155E+00  0.155E+00
  1.326  0.153E+00  0.153E+00
  1.336  0.151E+00  0.151E+00
  1.346  0.149E+00  0.149E+00
  1.356  0.147E+00  0.147E+00
  1.366  0.145E+00  0.145E+00
  1.376  0.143E+00  0.143E+00
  1.386  0.141E+00  0.141E+00
  1.396  0.139E+00  0.139E+00
  1.406  0.137E+00  0.137E+00
  1.416  0.136E+00  0.136E+00
  1.426  0.134E+00  0.134E+00
  1.436  0.132E+00  0.132E+00
  1.446  0.130E+00  0.130E+00
  1.456  0.129E+00  0.129E+00
  1.466  0.127E+00  0.127E+00
  1.476  0.126E+00  0.126E+00
  1.486  0.124E+00  0.124E+00
  1.496  0.123E+00  0.123E+00
  1.506  0.122E+00  0.122E+00
  1.516  0.121E+00  0.121E+00
  1.526  0.121E+00  0.121E+00
  1.536  0.120E+00  0.120E+00
  1.546  0.120E+00  0.120E+00
  1.556  0.120E+00  0.120E+00
  1.566  0.119E+00  0.119E+00
  1.576  0.119E+00  0.119E+00
  1.586  0.119E+00  0.119E+00
  1.596  0.119E+00  0.119E+00
  1.606  0.118E+00  0.118E+00
  1.616  0.118E+00  0.118E+00
  1.626  0.117E+00  0.117E+00
  1.636  0.117E+00  0.117E+00
  1.646  0.116E+00  0.116E+00
  1.656  0.114E+00  0.114E+00
  1.666  0.113E+00  0.113E+00
  1.676  0.112E+00  0.112E+00
  1.686  0.110E+00  0.110E+00
  1.696  0.108E+00  0.108E+00
  1.706  0.106E+00  0.106E+00
  1.716  0.105E+00  0.105E+00
  1.726  0.103E+00  0.103E+00
  1.736  0.101E+00  0.101E+00
  1.746  0.994E-01  0.994E-01
  1.756  0.979E-01  0.979E-01
  1.766  0.964E-01  0.964E-01
  1.776  0.950E-01  0.950E-01
  1.786  0.938E-01  0.938E-01
  1.796  0.927E-01  0.927E-01
  1.806  0.917E-01  0.917E-01
  1.816  0.909E-01  0.909E-01
  1.826  0.902E-01  0.902E-01
  1.836  0.895E-01  0.895E-01
  1.846  0.890E-01  0.890E-01
  1.856  0.885E-01  0.885E-01
  1.866  0.881E-01  0.881E-01
  1.876  0.877E-01  0.877E-01
  1.886  0.873E-01  0.873E-01
  1.896  0.870E-01  0.870E-01
  1.906  0.866E-01  0.866E-01
  1.916  0.862E-01  0.862E-01
  1.926  0.859E-01  0.859E-01
  1.936  0.855E-01  0.855E-01
  1.946  0.851E-01  0.851E-01
  1.956  0.847E-01  0.847E-01
  1.966  0.843E-01  0.843E-01
  1.976  0.839E-01  0.839E-01
  1.986  0.834E-01  0.834E-01
  1.996  0.830E-01  0.830E-01
  2.006  0.825E-01  0.825E-01
  2.016  0.820E-01  0.820E-01
  2.026  0.814E-01  0.814E-01
  2.036  0.809E-01  0.809E-01
  2.046  0.803E-01  0.803E-01
  2.056  0.798E-01  0.798E-01
  2.066  0.792E-01  0.792E-01
  2.076  0.786E-01  0.786E-01
  2.086  0.779E-01  0.779E-01
  2.096  0.773E-01  0.773E-01
  2.106  0.767E-01  0.767E-01
  2.116  0.761E-01  0.761E-01
  2.126  0.754E-01  0.754E-01
  2.136  0.748E-01  0.748E-01
  2.146  0.741E-01  0.741E-01
  2.156  0.734E-01  0.734E-01
  2.166  0.727E-01  0.727E-01
  2.176  0.720E-01  0.720E-01
  2.186  0.712E-01  0.712E-01
  2.196  0.704E-01  0.704E-01
  2.206  0.695E-01  0.695E-01
  2.216  0.686E-01  0.686E-01
  2.226  0.676E-01  0.676E-01
  2.236  0.666E-01  0.666E-01
  2.246  0.655E-01  0.655E-01
  2.256  0.643E-01  0.643E-01
  2.266  0.631E-01  0.631E-01
  2.276  0.620E-01  0.620E-01
  2.286  0.608E-01  0.608E-01
  2.296  0.597E-01  0.597E-01
  2.306  0.587E-01  0.587E-01
  2.316  0.578E-01  0.578E-01
  2.326  0.570E-01  0.570E-01
  2.336  0.564E-01  0.564E-01
  2.346  0.559E-01  0.559E-01
  2.356  0.556E-01  0.556E-01
  2.366  0.555E-01  0.555E-01
  2.376  0.556E-01  0.556E-01
  2.386  0.559E-01  0.559E-01
  2.396  0.563E-01  0.563E-01
  2.406  0.568E-01  0.568E-01
  2.416  0.574E-01  0.574E-01
  2.426  0.581E-01  0.581E-01
  2.436  0.588E-01  0.588E-01
  2.446  0.594E-01  0.594E-01
  2.456  0.601E-01  0.601E-01
  2.466  0.606E-01  0.606E-01
  2.476  0.610E-01  0.610E-01
  2.486  0.612E-01  0.612E-01
  2.496  0.613E-01  0.613E-01
  2.506  0.612E-01  0.612E-01
  2.516  0.609E-01  0.609E-01
  2.526  0.604E-01  0.604E-01
  2.536  0.598E-01  0.598E-01
  2.546  0.589E-01  0.589E-01
  2.556  0.579E-01  0.579E-01
  2.566  0.568E-01  0.568E-01
  2.576  0.556E-01  0.556E-01
  2.586  0.543E-01  0.543E-01
  2.596  0.530E-01  0.530E-01
  2.606  0.517E-01  0.517E-01
  2.616  0.505E-01  0.505E-01
  2.626  0.492E-01  0.492E-01
  2.636  0.481E-01  0.481E-01
  2.646  0.471E-01  0.471E-01
  2.656  0.462E-01  0.462E-01
  2.666  0.454E-01  0.454E-01
  2.676  0.448E-01  0.448E-01
  2.686  0.443E-01  0.443E-01
  2.696  0.439E-01  0.439E-01
  2.706  0.436E-01  0.436E-01
  2.716  0.434E-01  0.434E-01
  2.726  0.432E-01  0.432E-01
  2.736  0.431E-01  0.431E-01
  2.746  0.430E-01  0.430E-01
  2.756  0.430E-01  0.430E-01
  2.766  0.429E-01  0.429E-01
  2.776  0.429E-01  0.429E-01
  2.786  0.428E-01  0.428E-01
  2.796  0.428E-01  0.428E-01
  2.806  0.428E-01  0.428E-01
  2.816  0.427E-01  0.427E-01
  2.826  0.428E-01  0.428E-01
  2.836  0.428E-01  0.428E-01
  2.846  0.430E-01  0.430E-01
  2.856  0.432E-01  0.432E-01
  2.866  0.436E-01  0.436E-01
  2.876  0.440E-01  0.440E-01
  2.886  0.446E-01  0.446E-01
  2.896  0.453E-01  0.453E-01
  2.906  0.461E-01  0.461E-01
  2.916  0.470E-01  0.470E-01
  2.926  0.480E-01  0.480E-01
  2.936  0.491E-01  0.491E-01
  2.946  0.502E-01  0.502E-01
  2.956  0.513E-01  0.513E-01
  2.966  0.524E-01  0.524E-01
  2.976  0.534E-01  0.534E-01
  2.986  0.544E-01  0.544E-01
  2.996  0.553E-01  0.553E-01
  3.006  0.561E-01  0.561E-01
  3.016  0.567E-01  0.567E-01
  3.026  0.573E-01  0.573E-01
  3.036  0.576E-01  0.576E-01
  3.046  0.579E-01  0.579E-01
  3.056  0.581E-01  0.581E-01
  3.066  0.581E-01  0.581E-01
  3.076  0.581E-01  0.581E-01
  3.086  0.579E-01  0.579E-01
  3.096  0.577E-01  0.577E-01
  3.106  0.575E-01  0.575E-01
  3.116  0.572E-01  0.572E-01
  3.126  0.569E-01  0.569E-01
  3.136  0.566E-01  0.566E-01
  3.146  0.563E-01  0.563E-01
  3.156  0.560E-01  0.560E-01
  3.166  0.557E-01  0.557E-01
  3.176  0.554E-01  0.554E-01
  3.186  0.551E-01  0.551E-01
  3.196  0.549E-01  0.549E-01
  3.206  0.547E-01  0.547E-01
  3.216  0.546E-01  0.546E-01
  3.226  0.545E-01  0.545E-01
  3.236  0.544E-01  0.544E-01
  3.246  0.544E-01  0.544E-01
  3.256  0.545E-01  0.545E-01
  3.266  0.546E-01  0.546E-01
  3.276  0.549E-01  0.549E-01
  3.286  0.551E-01  0.551E-01
  3.296  0.555E-01  0.555E-01
  3.306  0.560E-01  0.560E-01
  3.316  0.565E-01  0.565E-01
  3.326  0.571E-01  0.571E-01
  3.336  0.577E-01  0.577E-01
  3.346  0.584E-01  0.584E-01
  3.356  0.592E-01  0.592E-01
  3.366  0.599E-01  0.599E-01
  3.376  0.607E-01  0.607E-01
  3.386  0.614E-01  0.614E-01
  3.396  0.621E-01  0.621E-01
  3.406  0.628E-01  0.628E-01
  3.416  0.633E-01  0.633E-01
  3.426  0.638E-01  0.638E-01
  3.436  0.642E-01  0.642E-01
  3.446  0.645E-01  0.645E-01
  3.456  0.647E-01  0.647E-01
  3.466  0.648E-01  0.648E-01
  3.476  0.648E-01  0.648E-01
  3.486  0.647E-01  0.647E-01
  3.496  0.645E-01  0.645E-01
  3.506  0.643E-01  0.643E-01
  3.516  0.640E-01  0.640E-01
  3.526  0.636E-01  0.636E-01
  3.536  0.633E-01  0.633E-01
  3.546  0.629E-01  0.629E-01
  3.556  0.625E-01  0.625E-01
  3.566  0.622E-01  0.622E-01
  3.576  0.618E-01  0.618E-01
  3.586  0.615E-01  0.615E-01
  3.596  0.611E-01  0.611E-01
  3.606  0.609E-01  0.609E-01
  3.616  0.606E-01  0.606E-01
  3.626  0.604E-01  0.604E-01
  3.636  0.602E-01  0.602E-01
  3.646  0.601E-01  0.601E-01
  3.656  0.600E-01  0.600E-01
  3.666  0.599E-01  0.599E-01
  3.676  0.599E-01  0.599E-01
  3.686  0.599E-01  0.599E-01
  3.696  0.599E-01  0.599E-01
  3.706  0.598E-01  0.598E-01
  3.716  0.598E-01  0.598E-01
  3.726  0.598E-01  0.598E-01
  3.736  0.597E-01  0.597E-01
  3.746  0.596E-01  0.596E-01
  3.756  0.594E-01  0.594E-01
  3.766  0.592E-01  0.592E-01
  3.776  0.589E-01  0.589E-01
  3.786  0.586E-01  0.586E-01
  3.796  0.581E-01  0.581E-01
  3.806  0.577E-01  0.577E-01
  3.816  0.572E-01  0.572E-01
  3.826  0.566E-01  0.566E-01
  3.836  0.561E-01  0.561E-01
  3.846  0.555E-01  0.555E-01
  3.856  0.550E-01  0.550E-01
  3.866  0.545E-01  0.545E-01
  3.876  0.541E-01  0.541E-01
  3.886  0.538E-01  0.538E-01
  3.896  0.535E-01  0.535E-01
  3.906  0.533E-01  0.533E-01
  3.916  0.532E-01  0.532E-01
  3.926  0.531E-01  0.531E-01
  3.936  0.532E-01  0.532E-01
  3.946  0.533E-01  0.533E-01
  3.956  0.535E-01  0.535E-01
  3.966  0.538E-01  0.538E-01
  3.976  0.541E-01  0.541E-01
  3.986  0.545E-01  0.545E-01
  3.996  0.549E-01  0.549E-01
  4.006  0.553E-01  0.553E-01
  4.016  0.557E-01  0.557E-01
  4.026  0.561E-01  0.561E-01
  4.036  0.564E-01  0.564E-01
  4.046  0.568E-01  0.568E-01
  4.056  0.572E-01  0.572E-01
  4.066  0.575E-01  0.575E-01
  4.076  0.577E-01  0.577E-01
  4.086  0.579E-01  0.579E-01
  4.096  0.581E-01  0.581E-01
  4.106  0.582E-01  0.582E-01
  4.116  0.582E-01  0.582E-01
  4.126  0.582E-01  0.582E-01
  4.136  0.580E-01  0.580E-01
  4.146  0.578E-01  0.578E-01
  4.156  0.575E-01  0.575E-01
  4.166  0.572E-01  0.572E-01
  4.176  0.567E-01  0.567E-01
  4.186  0.562E-01  0.562E-01
  4.196  0.556E-01  0.556E-01
  4.206  0.550E-01  0.550E-01
  4.216  0.543E-01  0.543E-01
  4.226  0.535E-01  0.535E-01
  4.236  0.527E-01  0.527E-01
  4.246  0.519E-01  0.519E-01
  4.256  0.510E-01  0.510E-01
  4.266  0.501E-01  0.501E-01
  4.276  0.492E-01  0.492E-01
  4.286  0.483E-01  0.483E-01
  4.296  0.475E-01  0.475E-01
  4.306  0.467E-01  0.467E-01
  4.316  0.459E-01  0.459E-01
  4.326  0.452E-01  0.452E-01
  4.336  0.445E-01  0.445E-01
  4.346  0.440E-01  0.440E-01
  4.356  0.435E-01  0.435E-01
  4.366  0.430E-01  0.430E-01
  4.376  0.427E-01  0.427E-01
  4.386  0.425E-01  0.425E-01
  4.396  0.423E-01  0.423E-01
  4.406  0.421E-01  0.421E-01
  4.416  0.421E-01  0.421E-01
  4.426  0.421E-01  0.421E-01
  4.436  0.421E-01  0.421E-01
  4.446  0.421E-01  0.421E-01
  4.456  0.422E-01  0.422E-01
  4.466  0.422E-01  0.422E-01
  4.476  0.423E-01  0.423E-01
  4.486  0.423E-01  0.423E-01
  4.496  0.424E-01  0.424E-01
  4.506  0.425E-01  0.425E-01
  4.516  0.425E-01  0.425E-01
  4.526  0.426E-01  0.426E-01
  4.536  0.427E-01  0.427E-01
  4.546  0.428E-01  0.428E-01
  4.556  0.429E-01  0.429E-01
  4.566  0.431E-01  0.431E-01
  4.576  0.432E-01  0.432E-01
  4.586  0.434E-01  0.434E-01
  4.596  0.436E-01  0.436E-01
  4.606  0.438E-01  0.438E-01
  4.616  0.440E-01  0.440E-01
  4.626  0.441E-01  0.441E-01
  4.636  0.443E-01  0.443E-01
  4.646  0.444E-01  0.444E-01
  4.656  0.444E-01  0.444E-01
  4.666  0.444E-01  0.444E-01
  4.676  0.444E-01  0.444E-01
  4.686  0.442E-01  0.442E-01
  4.696  0.439E-01  0.439E-01
  4.706  0.436E-01  0.436E-01
  4.716  0.432E-01  0.432E-01
  4.726  0.426E-01  0.426E-01
  4.736  0.421E-01  0.421E-01
  4.746  0.414E-01  0.414E-01
  4.756  0.407E-01  0.407E-01
  4.766  0.399E-01  0.399E-01
  4.776  0.392E-01  0.392E-01
  4.786  0.384E-01  0.384E-01
  4.796  0.376E-01  0.376E-01
  4.806  0.368E-01  0.368E-01
  4.816  0.360E-01  0.360E-01
  4.826  0.352E-01  0.352E-01
  4.836  0.345E-01  0.345E-01
  4.846  0.338E-01  0.338E-01
  4.856  0.331E-01  0.331E-01
  4.866  0.325E-01  0.325E-01
  4.876  0.319E-01  0.319E-01
  4.886  0.313E-01  0.313E-01
  4.896  0.308E-01  0.308E-01
  4.906  0.304E-01  0.304E-01
  4.916  0.300E-01  0.300E-01
  4.926  0.296E-01  0.296E-01
  4.936  0.292E-01  0.292E-01
  4.946  0.289E-01  0.289E-01
  4.956  0.287E-01  0.287E-01
  4.966  0.285E-01  0.285E-01
  4.976  0.283E-01  0.283E-01
  4.986  0.281E-01  0.281E-01
  4.996  0.280E-01  0.280E-01
  5.006  0.280E-01  0.280E-01
  5.016  0.279E-01  0.279E-01
  5.026  0.279E-01  0.279E-01
  5.036  0.279E-01  0.279E-01
  5.046  0.280E-01  0.280E-01
  5.056  0.280E-01  0.280E-01
  5.066  0.281E-01  0.281E-01
  5.076  0.281E-01  0.281E-01
  5.086  0.282E-01  0.282E-01
  5.096  0.283E-01  0.283E-01
  5.106  0.283E-01  0.283E-01
  5.116  0.284E-01  0.284E-01
  5.126  0.284E-01  0.284E-01
  5.136  0.284E-01  0.284E-01
  5.146  0.284E-01  0.284E-01
  5.156  0.283E-01  0.283E-01
  5.166  0.282E-01  0.282E-01
  5.176  0.281E-01  0.281E-01
  5.186  0.279E-01  0.279E-01
  5.196  0.278E-01  0.278E-01
  5.206  0.275E-01  0.275E-01
  5.216  0.273E-01  0.273E-01
  5.226  0.270E-01  0.270E-01
  5.236  0.267E-01  0.267E-01
  5.246  0.264E-01  0.264E-01
  5.256  0.260E-01  0.260E-01
  5.266  0.257E-01  0.257E-01
  5.276  0.253E-01  0.253E-01
  5.286  0.249E-01  0.249E-01
  5.296  0.246E-01  0.246E-01
  5.306  0.242E-01  0.242E-01
  5.316  0.238E-01  0.238E-01
  5.326  0.234E-01  0.234E-01
  5.336  0.230E-01  0.230E-01
  5.346  0.227E-01  0.227E-01
  5.356  0.223E-01  0.223E-01
  5.366  0.219E-01  0.219E-01
  5.376  0.214E-01  0.214E-01
  5.386  0.210E-01  0.210E-01
  5.396  0.206E-01  0.206E-01
  5.406  0.201E-01  0.201E-01
  5.416  0.196E-01  0.196E-01
  5.426  0.192E-01  0.192E-01
  5.436  0.187E-01  0.187E-01
  5.446  0.182E-01  0.182E-01
  5.456  0.177E-01  0.177E-01
  5.466  0.173E-01  0.173E-01
  5.476  0.168E-01  0.168E-01
  5.486  0.164E-01  0.164E-01
  5.496  0.159E-01  0.159E-01
  5.506  0.156E-01  0.156E-01
  5.516  0.152E-01  0.152E-01
  5.526  0.149E-01  0.149E-01
  5.536  0.146E-01  0.146E-01
  5.546  0.143E-01  0.143E-01
  5.556  0.141E-01  0.141E-01
  5.566  0.139E-01  0.139E-01
  5.576  0.138E-01  0.138E-01
  5.586  0.136E-01  0.136E-01
  5.596  0.135E-01  0.135E-01
  5.606  0.134E-01  0.134E-01
  5.616  0.133E-01  0.133E-01
  5.626  0.132E-01  0.132E-01
  5.636  0.131E-01  0.131E-01
  5.646  0.130E-01  0.130E-01
  5.656  0.129E-01  0.129E-01
  5.666  0.128E-01  0.128E-01
  5.676  0.127E-01  0.127E-01
  5.686  0.125E-01  0.125E-01
  5.696  0.124E-01  0.124E-01
  5.706  0.123E-01  0.123E-01
  5.716  0.121E-01  0.121E-01
  5.726  0.120E-01  0.120E-01
  5.736  0.119E-01  0.119E-01
  5.746  0.117E-01  0.117E-01
  5.756  0.116E-01  0.116E-01
  5.766  0.114E-01  0.114E-01
  5.776  0.113E-01  0.113E-01
  5.786  0.111E-01  0.111E-01
  5.796  0.110E-01  0.110E-01
  5.806  0.108E-01  0.108E-01
  5.816  0.106E-01  0.106E-01
  5.826  0.105E-01  0.105E-01
  5.836  0.103E-01  0.103E-01
  5.846  0.101E-01  0.101E-01
  5.856  0.992E-02  0.992E-02
  5.866  0.973E-02  0.973E-02
  5.876  0.953E-02  0.953E-02
  5.886  0.934E-02  0.934E-02
  5.896  0.915E-02  0.915E-02
  5.906  0.895E-02  0.895E-02
  5.916  0.875E-02  0.875E-02
  5.926  0.856E-02  0.856E-02
  5.936  0.836E-02  0.836E-02
  5.946  0.816E-02  0.816E-02
  5.956  0.796E-02  0.796E-02
  5.966  0.775E-02  0.775E-02
  5.976  0.754E-02  0.754E-02
  5.986  0.733E-02  0.733E-02
  5.996  0.711E-02  0.711E-02
  6.006  0.689E-02  0.689E-02
  6.016  0.666E-02  0.666E-02
  6.026  0.644E-02  0.644E-02
  6.036  0.620E-02  0.620E-02
  6.046  0.597E-02  0.597E-02
  6.056  0.574E-02  0.574E-02
  6.066  0.551E-02  0.551E-02
  6.076  0.529E-02  0.529E-02
  6.086  0.507E-02  0.507E-02
  6.096  0.485E-02  0.485E-02
  6.106  0.465E-02  0.465E-02
  6.116  0.445E-02  0.445E-02
  6.126  0.426E-02  0.426E-02
  6.136  0.408E-02  0.408E-02
  6.146  0.392E-02  0.392E-02
  6.156  0.376E-02  0.376E-02
  6.166  0.362E-02  0.362E-02
  6.176  0.349E-02  0.349E-02
  6.186  0.337E-02  0.337E-02
  6.196  0.326E-02  0.326E-02
  6.206  0.316E-02  0.316E-02
  6.216  0.308E-02  0.308E-02
  6.226  0.300E-02  0.300E-02
  6.236  0.294E-02  0.294E-02
  6.246  0.288E-02  0.288E-02
  6.256  0.283E-02  0.283E-02
  6.266  0.279E-02  0.279E-02
  6.276  0.275E-02  0.275E-02
  6.286  0.272E-02  0.272E-02
  6.296  0.269E-02  0.269E-02
  6.306  0.266E-02  0.266E-02
  6.316  0.263E-02  0.263E-02
  6.326  0.260E-02  0.260E-02
  6.336  0.256E-02  0.256E-02
  6.346  0.252E-02  0.252E-02
  6.356  0.247E-02  0.247E-02
  6.366  0.242E-02  0.242E-02
  6.376  0.235E-02  0.235E-02
  6.386  0.228E-02  0.228E-02
  6.396  0.220E-02  0.220E-02
  6.406  0.212E-02  0.212E-02
  6.416  0.203E-02  0.203E-02
  6.426  0.193E-02  0.193E-02
  6.436  0.183E-02  0.183E-02
  6.446  0.173E-02  0.173E-02
  6.456  0.162E-02  0.162E-02
  6.466  0.152E-02  0.152E-02
  6.476  0.141E-02  0.141E-02
  6.486  0.131E-02  0.131E-02
  6.496  0.121E-02  0.121E-02
  6.506  0.111E-02  0.111E-02
  6.516  0.102E-02  0.102E-02
  6.526  0.925E-03  0.925E-03
  6.536  0.838E-03  0.838E-03
  6.546  0.757E-03  0.757E-03
  6.556  0.680E-03  0.680E-03
  6.566  0.608E-03  0.608E-03
  6.576  0.541E-03  0.541E-03
  6.586  0.479E-03  0.479E-03
  6.596  0.422E-03  0.422E-03
  6.606  0.369E-03  0.369E-03
  6.616  0.322E-03  0.322E-03
  6.626  0.278E-03  0.278E-03
  6.636  0.240E-03  0.240E-03
  6.646  0.205E-03  0.205E-03
  6.656  0.174E-03  0.174E-03
  6.666  0.147E-03  0.147E-03
  6.676  0.123E-03  0.123E-03
  6.686  0.102E-03  0.102E-03
  6.696  0.842E-04  0.842E-04
  6.706  0.690E-04  0.690E-04
  6.716  0.560E-04  0.560E-04
  6.726  0.451E-04  0.451E-04
  6.736  0.360E-04  0.360E-04
  6.746  0.285E-04  0.285E-04
  6.756  0.224E-04  0.224E-04
  6.766  0.174E-04  0.174E-04
  6.776  0.134E-04  0.134E-04
  6.786  0.103E-04  0.103E-04
  6.796  0.777E-05  0.777E-05
  6.806  0.582E-05  0.582E-05
  6.816  0.433E-05  0.433E-05
  6.826  0.318E-05  0.318E-05
  6.836  0.232E-05  0.232E-05
  6.846  0.167E-05  0.167E-05
  6.856  0.120E-05  0.120E-05
  6.866  0.847E-06  0.847E-06
  6.876  0.593E-06  0.593E-06
  6.886  0.412E-06  0.412E-06
  6.896  0.283E-06  0.283E-06
  6.906  0.192E-06  0.192E-06
  6.916  0.129E-06  0.129E-06
  6.926  0.862E-07  0.862E-07
  6.936  0.568E-07  0.568E-07
  6.946  0.371E-07  0.371E-07
  6.956  0.240E-07  0.240E-07
  6.966  0.153E-07  0.153E-07
  6.976  0.969E-08  0.969E-08
  6.986  0.607E-08  0.607E-08
  6.996  0.376E-08  0.376E-08
  7.006  0.231E-08  0.231E-08
  7.016  0.140E-08  0.140E-08
  7.026  0.841E-09  0.841E-09
  7.036  0.500E-09  0.500E-09
  7.046  0.294E-09  0.294E-09
  7.056  0.171E-09  0.171E-09
  7.066  0.985E-10  0.985E-10
  7.076  0.561E-10  0.561E-10
  7.086  0.316E-10  0.316E-10
  7.096  0.176E-10  0.176E-10
  7.106  0.974E-11  0.974E-11
  7.116  0.532E-11  0.532E-11
  7.126  0.287E-11  0.287E-11
  7.136  0.154E-11  0.154E-11
  7.146  0.812E-12  0.812E-12
  7.156  0.425E-12  0.425E-12
  7.166  0.220E-12  0.220E-12
  7.176  0.113E-12  0.113E-12
  7.186  0.570E-13  0.570E-13
  7.196  0.286E-13  0.286E-13
  7.206  0.141E-13  0.141E-13
  7.216  0.669E-14  0.669E-14
  7.226  0.326E-14  0.326E-14
  7.236  0.157E-14  0.157E-14
  7.246  0.747E-15  0.747E-15
  7.256  0.169E-22  0.169E-22
  7.266  0.918E-23  0.918E-23
  7.276  0.493E-23  0.493E-23
  7.286  0.261E-23  0.261E-23
  7.296  0.137E-23  0.137E-23
  7.306  0.717E-24  0.717E-24
  7.316  0.352E-24  0.352E-24
  7.326  0.181E-24  0.181E-24
  7.336  0.918E-25  0.918E-25
  7.346  0.461E-25  0.461E-25
  7.356  0.229E-25  0.229E-25
  7.366  0.113E-25  0.113E-25
  7.376  0.447E-26  0.447E-26
  7.386  0.209E-26  0.209E-26
  7.396  0.100E-26  0.100E-26
  7.406  0.476E-27  0.476E-27
  7.416  0.000E+00  0.000E+00
  7.426  0.000E+00  0.000E+00
  7.436  0.000E+00  0.000E+00
  7.446  0.000E+00  0.000E+00
  7.456  0.000E+00  0.000E+00
  7.466  0.000E+00  0.000E+00
  7.476  0.000E+00  0.000E+00
  7.486  0.000E+00  0.000E+00
  7.496  0.000E+00  0.000E+00
  7.506  0.000E+00  0.000E+00
  7.516  0.000E+00  0.000E+00
  7.526  0.000E+00  0.000E+00
  7.536  0.000E+00  0.000E+00
  7.546  0.000E+00  0.000E+00
  7.556  0.000E+00  0.000E+00
  7.566  0.000E+00  0.000E+00
  7.576  0.000E+00  0.000E+00
  7.586  0.000E+00  0.000E+00
  7.596  0.930E-14  0.930E-14
  7.606  0.195E-13  0.195E-13
  7.616  0.551E-13  0.551E-13
  7.626  0.114E-12  0.114E-12
  7.636  0.233E-12  0.233E-12
  7.646  0.471E-12  0.471E-12
  7.656  0.943E-12  0.943E-12
  7.666  0.189E-11  0.189E-11
  7.676  0.370E-11  0.370E-11
  7.686  0.718E-11  0.718E-11
  7.696  0.138E-10  0.138E-10
  7.706  0.262E-10  0.262E-10
  7.716  0.492E-10  0.492E-10
  7.726  0.915E-10  0.915E-10
  7.736  0.168E-09  0.168E-09
  7.746  0.307E-09  0.307E-09
  7.756  0.552E-09  0.552E-09
  7.766  0.984E-09  0.984E-09
  7.776  0.173E-08  0.173E-08
  7.786  0.303E-08  0.303E-08
  7.796  0.523E-08  0.523E-08
  7.806  0.893E-08  0.893E-08
  7.816  0.151E-07  0.151E-07
  7.826  0.252E-07  0.252E-07
  7.836  0.418E-07  0.418E-07
  7.846  0.684E-07  0.684E-07
  7.856  0.111E-06  0.111E-06
  7.866  0.178E-06  0.178E-06
  7.876  0.282E-06  0.282E-06
  7.886  0.443E-06  0.443E-06
  7.896  0.689E-06  0.689E-06
  7.906  0.106E-05  0.106E-05
  7.916  0.161E-05  0.161E-05
  7.926  0.243E-05  0.243E-05
  7.936  0.362E-05  0.362E-05
  7.946  0.535E-05  0.535E-05
  7.956  0.781E-05  0.781E-05
  7.966  0.113E-04  0.113E-04
  7.976  0.162E-04  0.162E-04
  7.986  0.229E-04  0.229E-04
  7.996  0.321E-04  0.321E-04
  8.006  0.445E-04  0.445E-04
  8.016  0.612E-04  0.612E-04
  8.026  0.833E-04  0.833E-04
  8.036  0.112E-03  0.112E-03
  8.046  0.150E-03  0.150E-03
  8.056  0.198E-03  0.198E-03
  8.066  0.259E-03  0.259E-03
  8.076  0.336E-03  0.336E-03
  8.086  0.431E-03  0.431E-03
  8.096  0.549E-03  0.549E-03
  8.106  0.692E-03  0.692E-03
  8.116  0.865E-03  0.865E-03
  8.126  0.107E-02  0.107E-02
  8.136  0.132E-02  0.132E-02
  8.146  0.161E-02  0.161E-02
  8.156  0.194E-02  0.194E-02
  8.166  0.233E-02  0.233E-02
  8.176  0.277E-02  0.277E-02
  8.186  0.328E-02  0.328E-02
  8.196  0.386E-02  0.386E-02
  8.206  0.451E-02  0.451E-02
  8.216  0.524E-02  0.524E-02
  8.226  0.605E-02  0.605E-02
  8.236  0.696E-02  0.696E-02
  8.246  0.797E-02  0.797E-02
  8.256  0.909E-02  0.909E-02
  8.266  0.103E-01  0.103E-01
  8.276  0.117E-01  0.117E-01
  8.286  0.132E-01  0.132E-01
  8.296  0.149E-01  0.149E-01
  8.306  0.167E-01  0.167E-01
  8.316  0.188E-01  0.188E-01
  8.326  0.210E-01  0.210E-01
  8.336  0.234E-01  0.234E-01
  8.346  0.260E-01  0.260E-01
  8.356  0.289E-01  0.289E-01
  8.366  0.319E-01  0.319E-01
  8.376  0.351E-01  0.351E-01
  8.386  0.386E-01  0.386E-01
  8.396  0.422E-01  0.422E-01
  8.406  0.460E-01  0.460E-01
  8.416  0.498E-01  0.498E-01
  8.426  0.538E-01  0.538E-01
  8.436  0.578E-01  0.578E-01
  8.446  0.618E-01  0.618E-01
  8.456  0.658E-01  0.658E-01
  8.466  0.697E-01  0.697E-01
  8.476  0.735E-01  0.735E-01
  8.486  0.772E-01  0.772E-01
  8.496  0.806E-01  0.806E-01
  8.506  0.839E-01  0.839E-01
  8.516  0.870E-01  0.870E-01
  8.526  0.898E-01  0.898E-01
  8.536  0.924E-01  0.924E-01
  8.546  0.949E-01  0.949E-01
  8.556  0.972E-01  0.972E-01
  8.566  0.994E-01  0.994E-01
  8.576  0.102E+00  0.102E+00
  8.586  0.104E+00  0.104E+00
  8.596  0.106E+00  0.106E+00
  8.606  0.108E+00  0.108E+00
  8.616  0.110E+00  0.110E+00
  8.626  0.112E+00  0.112E+00
  8.636  0.115E+00  0.115E+00
  8.646  0.118E+00  0.118E+00
  8.656  0.121E+00  0.121E+00
  8.666  0.124E+00  0.124E+00
  8.676  0.127E+00  0.127E+00
  8.686  0.131E+00  0.131E+00
  8.696  0.135E+00  0.135E+00
  8.706  0.139E+00  0.139E+00
  8.716  0.143E+00  0.143E+00
  8.726  0.147E+00  0.147E+00
  8.736  0.151E+00  0.151E+00
  8.746  0.156E+00  0.156E+00
  8.756  0.160E+00  0.160E+00
  8.766  0.165E+00  0.165E+00
  8.776  0.169E+00  0.169E+00
  8.786  0.173E+00  0.173E+00
  8.796  0.178E+00  0.178E+00
  8.806  0.182E+00  0.182E+00
  8.816  0.186E+00  0.186E+00
  8.826  0.190E+00  0.190E+00
  8.836  0.194E+00  0.194E+00
  8.846  0.197E+00  0.197E+00
  8.856  0.201E+00  0.201E+00
  8.866  0.204E+00  0.204E+00
  8.876  0.207E+00  0.207E+00
  8.886  0.211E+00  0.211E+00
  8.896  0.213E+00  0.213E+00
  8.906  0.216E+00  0.216E+00
  8.916  0.219E+00  0.219E+00
  8.926  0.221E+00  0.221E+00
  8.936  0.224E+00  0.224E+00
  8.946  0.226E+00  0.226E+00
  8.956  0.228E+00  0.228E+00
  8.966  0.230E+00  0.230E+00
  8.976  0.233E+00  0.233E+00
  8.986  0.235E+00  0.235E+00
  8.996  0.237E+00  0.237E+00
  9.006  0.240E+00  0.240E+00
  9.016  0.242E+00  0.242E+00
  9.026  0.245E+00  0.245E+00
  9.036  0.248E+00  0.248E+00
  9.046  0.251E+00  0.251E+00
  9.056  0.255E+00  0.255E+00
  9.066  0.259E+00  0.259E+00
  9.076  0.263E+00  0.263E+00
  9.086  0.267E+00  0.267E+00
  9.096  0.272E+00  0.272E+00
  9.106  0.277E+00  0.277E+00
  9.116  0.283E+00  0.283E+00
  9.126  0.288E+00  0.288E+00
  9.136  0.294E+00  0.294E+00
  9.146  0.300E+00  0.300E+00
  9.156  0.307E+00  0.307E+00
  9.166  0.313E+00  0.313E+00
  9.176  0.320E+00  0.320E+00
  9.186  0.326E+00  0.326E+00
  9.196  0.333E+00  0.333E+00
  9.206  0.339E+00  0.339E+00
  9.216  0.345E+00  0.345E+00
  9.226  0.351E+00  0.351E+00
  9.236  0.357E+00  0.357E+00
  9.246  0.363E+00  0.363E+00
  9.256  0.368E+00  0.368E+00
  9.266  0.373E+00  0.373E+00
  9.276  0.377E+00  0.377E+00
  9.286  0.382E+00  0.382E+00
  9.296  0.386E+00  0.386E+00
  9.306  0.389E+00  0.389E+00
  9.316  0.393E+00  0.393E+00
  9.326  0.396E+00  0.396E+00
  9.336  0.399E+00  0.399E+00
  9.346  0.403E+00  0.403E+00
  9.356  0.406E+00  0.406E+00
  9.366  0.409E+00  0.409E+00
  9.376  0.412E+00  0.412E+00
  9.386  0.415E+00  0.415E+00
  9.396  0.419E+00  0.419E+00
  9.406  0.422E+00  0.422E+00
  9.416  0.425E+00  0.425E+00
  9.426  0.429E+00  0.429E+00
  9.436  0.433E+00  0.433E+00
  9.446  0.436E+00  0.436E+00
  9.456  0.440E+00  0.440E+00
  9.466  0.443E+00  0.443E+00
  9.476  0.447E+00  0.447E+00
  9.486  0.450E+00  0.450E+00
  9.496  0.453E+00  0.453E+00
  9.506  0.456E+00  0.456E+00
  9.516  0.459E+00  0.459E+00
  9.526  0.461E+00  0.461E+00
  9.536  0.462E+00  0.462E+00
  9.546  0.463E+00  0.463E+00
  9.556  0.463E+00  0.463E+00
  9.566  0.462E+00  0.462E+00
  9.576  0.461E+00  0.461E+00
  9.586  0.458E+00  0.458E+00
  9.596  0.456E+00  0.456E+00
  9.606  0.452E+00  0.452E+00
  9.616  0.447E+00  0.447E+00
  9.626  0.442E+00  0.442E+00
  9.636  0.437E+00  0.437E+00
  9.646  0.431E+00  0.431E+00
  9.656  0.424E+00  0.424E+00
  9.666  0.418E+00  0.418E+00
  9.676  0.412E+00  0.412E+00
  9.686  0.405E+00  0.405E+00
  9.696  0.399E+00  0.399E+00
  9.706  0.393E+00  0.393E+00
  9.716  0.388E+00  0.388E+00
  9.726  0.383E+00  0.383E+00
  9.736  0.378E+00  0.378E+00
  9.746  0.374E+00  0.374E+00
  9.756  0.370E+00  0.370E+00
  9.766  0.367E+00  0.367E+00
  9.776  0.364E+00  0.364E+00
  9.786  0.361E+00  0.361E+00
  9.796  0.358E+00  0.358E+00
  9.806  0.354E+00  0.354E+00
  9.816  0.351E+00  0.351E+00
  9.826  0.347E+00  0.347E+00
  9.836  0.342E+00  0.342E+00
  9.846  0.337E+00  0.337E+00
  9.856  0.331E+00  0.331E+00
  9.866  0.325E+00  0.325E+00
  9.876  0.318E+00  0.318E+00
  9.886  0.310E+00  0.310E+00
  9.896  0.302E+00  0.302E+00
  9.906  0.294E+00  0.294E+00
  9.916  0.285E+00  0.285E+00
  9.926  0.276E+00  0.276E+00
  9.936  0.268E+00  0.268E+00
  9.946  0.259E+00  0.259E+00
  9.956  0.251E+00  0.251E+00
  9.966  0.243E+00  0.243E+00
  9.976  0.236E+00  0.236E+00
  9.986  0.229E+00  0.229E+00
  9.996  0.223E+00  0.223E+00
 10.006  0.217E+00  0.217E+00
 10.016  0.212E+00  0.212E+00
 10.026  0.208E+00  0.208E+00
 10.036  0.204E+00  0.204E+00
 10.046  0.201E+00  0.201E+00
 10.056  0.198E+00  0.198E+00
 10.066  0.196E+00  0.196E+00
 10.076  0.194E+00  0.194E+00
 10.086  0.192E+00  0.192E+00
 10.096  0.190E+00  0.190E+00
 10.106  0.189E+00  0.189E+00
 10.116  0.188E+00  0.188E+00
 10.126  0.187E+00  0.187E+00
 10.136  0.186E+00  0.186E+00
 10.146  0.184E+00  0.184E+00
 10.156  0.183E+00  0.183E+00
 10.166  0.182E+00  0.182E+00
 10.176  0.180E+00  0.180E+00
 10.186  0.178E+00  0.178E+00
 10.196  0.177E+00  0.177E+00
 10.206  0.174E+00  0.174E+00
 10.216  0.172E+00  0.172E+00
 10.226  0.170E+00  0.170E+00
 10.236  0.167E+00  0.167E+00
 10.246  0.165E+00  0.165E+00
 10.256  0.162E+00  0.162E+00
 10.266  0.160E+00  0.160E+00
 10.276  0.157E+00  0.157E+00
 10.286  0.155E+00  0.155E+00
 10.296  0.153E+00  0.153E+00
 10.306  0.151E+00  0.151E+00
 10.316  0.150E+00  0.150E+00
 10.326  0.149E+00  0.149E+00
 10.336  0.148E+00  0.148E+00
 10.346  0.148E+00  0.148E+00
 10.356  0.148E+00  0.148E+00
 10.366  0.148E+00  0.148E+00
 10.376  0.148E+00  0.148E+00
 10.386  0.149E+00  0.149E+00
 10.396  0.150E+00  0.150E+00
 10.406  0.150E+00  0.150E+00
 10.416  0.151E+00  0.151E+00
 10.426  0.152E+00  0.152E+00
 10.436  0.152E+00  0.152E+00
 10.446  0.152E+00  0.152E+00
 10.456  0.152E+00  0.152E+00
 10.466  0.152E+00  0.152E+00
 10.476  0.152E+00  0.152E+00
 10.486  0.151E+00  0.151E+00
 10.496  0.150E+00  0.150E+00
 10.506  0.149E+00  0.149E+00
 10.516  0.148E+00  0.148E+00
 10.526  0.146E+00  0.146E+00
 10.536  0.145E+00  0.145E+00
 10.546  0.144E+00  0.144E+00
 10.556  0.142E+00  0.142E+00
 10.566  0.141E+00  0.141E+00
 10.576  0.139E+00  0.139E+00
 10.586  0.138E+00  0.138E+00
 10.596  0.136E+00  0.136E+00
 10.606  0.135E+00  0.135E+00
 10.616  0.133E+00  0.133E+00
 10.626  0.132E+00  0.132E+00
 10.636  0.131E+00  0.131E+00
 10.646  0.129E+00  0.129E+00
 10.656  0.127E+00  0.127E+00
 10.666  0.125E+00  0.125E+00
 10.676  0.123E+00  0.123E+00
 10.686  0.121E+00  0.121E+00
 10.696  0.119E+00  0.119E+00
 10.706  0.116E+00  0.116E+00
 10.716  0.113E+00  0.113E+00
 10.726  0.110E+00  0.110E+00
 10.736  0.107E+00  0.107E+00
 10.746  0.104E+00  0.104E+00
 10.756  0.101E+00  0.101E+00
 10.766  0.981E-01  0.981E-01
 10.776  0.950E-01  0.950E-01
 10.786  0.920E-01  0.920E-01
 10.796  0.891E-01  0.891E-01
 10.806  0.863E-01  0.863E-01
 10.816  0.837E-01  0.837E-01
 10.826  0.814E-01  0.814E-01
 10.836  0.792E-01  0.792E-01
 10.846  0.772E-01  0.772E-01
 10.856  0.755E-01  0.755E-01
 10.866  0.740E-01  0.740E-01
 10.876  0.726E-01  0.726E-01
 10.886  0.715E-01  0.715E-01
 10.896  0.706E-01  0.706E-01
 10.906  0.699E-01  0.699E-01
 10.916  0.693E-01  0.693E-01
 10.926  0.689E-01  0.689E-01
 10.936  0.687E-01  0.687E-01
 10.946  0.687E-01  0.687E-01
 10.956  0.689E-01  0.689E-01
 10.966  0.694E-01  0.694E-01
 10.976  0.700E-01  0.700E-01
 10.986  0.710E-01  0.710E-01
 10.996  0.722E-01  0.722E-01
 11.006  0.737E-01  0.737E-01
 11.016  0.755E-01  0.755E-01
 11.026  0.776E-01  0.776E-01
 11.036  0.801E-01  0.801E-01
 11.046  0.829E-01  0.829E-01
 11.056  0.860E-01  0.860E-01
 11.066  0.893E-01  0.893E-01
 11.076  0.929E-01  0.929E-01
 11.086  0.967E-01  0.967E-01
 11.096  0.101E+00  0.101E+00
 11.106  0.105E+00  0.105E+00
 11.116  0.109E+00  0.109E+00
 11.126  0.113E+00  0.113E+00
 11.136  0.117E+00  0.117E+00
 11.146  0.121E+00  0.121E+00
 11.156  0.124E+00  0.124E+00
 11.166  0.127E+00  0.127E+00
 11.176  0.130E+00  0.130E+00
 11.186  0.133E+00  0.133E+00
 11.196  0.135E+00  0.135E+00
 11.206  0.137E+00  0.137E+00
 11.216  0.138E+00  0.138E+00
 11.226  0.138E+00  0.138E+00
 11.236  0.138E+00  0.138E+00
 11.246  0.138E+00  0.138E+00
 11.256  0.137E+00  0.137E+00
 11.266  0.135E+00  0.135E+00
 11.276  0.133E+00  0.133E+00
 11.286  0.131E+00  0.131E+00
 11.296  0.128E+00  0.128E+00
 11.306  0.125E+00  0.125E+00
 11.316  0.121E+00  0.121E+00
 11.326  0.117E+00  0.117E+00
 11.336  0.113E+00  0.113E+00
 11.346  0.109E+00  0.109E+00
 11.356  0.105E+00  0.105E+00
 11.366  0.101E+00  0.101E+00
 11.376  0.972E-01  0.972E-01
 11.386  0.934E-01  0.934E-01
 11.396  0.898E-01  0.898E-01
 11.406  0.864E-01  0.864E-01
 11.416  0.833E-01  0.833E-01
 11.426  0.804E-01  0.804E-01
 11.436  0.779E-01  0.779E-01
 11.446  0.756E-01  0.756E-01
 11.456  0.736E-01  0.736E-01
 11.466  0.718E-01  0.718E-01
 11.476  0.704E-01  0.704E-01
 11.486  0.691E-01  0.691E-01
 11.496  0.681E-01  0.681E-01
 11.506  0.673E-01  0.673E-01
 11.516  0.666E-01  0.666E-01
 11.526  0.662E-01  0.662E-01
 11.536  0.659E-01  0.659E-01
 11.546  0.658E-01  0.658E-01
 11.556  0.658E-01  0.658E-01
 11.566  0.660E-01  0.660E-01
 11.576  0.663E-01  0.663E-01
 11.586  0.668E-01  0.668E-01
 11.596  0.675E-01  0.675E-01
 11.606  0.684E-01  0.684E-01
 11.616  0.694E-01  0.694E-01
 11.626  0.706E-01  0.706E-01
 11.636  0.719E-01  0.719E-01
 11.646  0.735E-01  0.735E-01
 11.656  0.752E-01  0.752E-01
 11.666  0.770E-01  0.770E-01
 11.676  0.790E-01  0.790E-01
 11.686  0.811E-01  0.811E-01
 11.696  0.833E-01  0.833E-01
 11.706  0.855E-01  0.855E-01
 11.716  0.877E-01  0.877E-01
 11.726  0.898E-01  0.898E-01
 11.736  0.918E-01  0.918E-01
 11.746  0.937E-01  0.937E-01
 11.756  0.953E-01  0.953E-01
 11.766  0.967E-01  0.967E-01
 11.776  0.978E-01  0.978E-01
 11.786  0.985E-01  0.985E-01
 11.796  0.989E-01  0.989E-01
 11.806  0.989E-01  0.989E-01
 11.816  0.986E-01  0.986E-01
 11.826  0.978E-01  0.978E-01
 11.836  0.968E-01  0.968E-01
 11.846  0.955E-01  0.955E-01
 11.856  0.939E-01  0.939E-01
 11.866  0.921E-01  0.921E-01
 11.876  0.901E-01  0.901E-01
 11.886  0.880E-01  0.880E-01
 11.896  0.859E-01  0.859E-01
 11.906  0.839E-01  0.839E-01
 11.916  0.819E-01  0.819E-01
 11.926  0.799E-01  0.799E-01
 11.936  0.781E-01  0.781E-01
 11.946  0.765E-01  0.765E-01
 11.956  0.751E-01  0.751E-01
 11.966  0.738E-01  0.738E-01
 11.976  0.727E-01  0.727E-01
 11.986  0.718E-01  0.718E-01
 11.996  0.710E-01  0.710E-01
 12.006  0.704E-01  0.704E-01
 12.016  0.699E-01  0.699E-01
 12.026  0.696E-01  0.696E-01
 12.036  0.693E-01  0.693E-01
 12.046  0.691E-01  0.691E-01
 12.056  0.689E-01  0.689E-01
 12.066  0.687E-01  0.687E-01
 12.076  0.686E-01  0.686E-01
 12.086  0.685E-01  0.685E-01
 12.096  0.683E-01  0.683E-01
 12.106  0.681E-01  0.681E-01
 12.116  0.679E-01  0.679E-01
 12.126  0.677E-01  0.677E-01
 12.136  0.674E-01  0.674E-01
 12.146  0.672E-01  0.672E-01
 12.156  0.669E-01  0.669E-01
 12.166  0.666E-01  0.666E-01
 12.176  0.663E-01  0.663E-01
 12.186  0.661E-01  0.661E-01
 12.196  0.658E-01  0.658E-01
 12.206  0.656E-01  0.656E-01
 12.216  0.655E-01  0.655E-01
 12.226  0.654E-01  0.654E-01
 12.236  0.653E-01  0.653E-01
 12.246  0.653E-01  0.653E-01
 12.256  0.654E-01  0.654E-01
 12.266  0.656E-01  0.656E-01
 12.276  0.658E-01  0.658E-01
 12.286  0.661E-01  0.661E-01
 12.296  0.665E-01  0.665E-01
 12.306  0.669E-01  0.669E-01
 12.316  0.675E-01  0.675E-01
 12.326  0.681E-01  0.681E-01
 12.336  0.688E-01  0.688E-01
 12.346  0.696E-01  0.696E-01
 12.356  0.706E-01  0.706E-01
 12.366  0.716E-01  0.716E-01
 12.376  0.727E-01  0.727E-01
 12.386  0.739E-01  0.739E-01
 12.396  0.752E-01  0.752E-01
 12.406  0.765E-01  0.765E-01
 12.416  0.779E-01  0.779E-01
 12.426  0.793E-01  0.793E-01
 12.436  0.806E-01  0.806E-01
 12.446  0.819E-01  0.819E-01
 12.456  0.832E-01  0.832E-01
 12.466  0.842E-01  0.842E-01
 12.476  0.851E-01  0.851E-01
 12.486  0.858E-01  0.858E-01
 12.496  0.862E-01  0.862E-01
 12.506  0.863E-01  0.863E-01
 12.516  0.862E-01  0.862E-01
 12.526  0.857E-01  0.857E-01
 12.536  0.848E-01  0.848E-01
 12.546  0.837E-01  0.837E-01
 12.556  0.822E-01  0.822E-01
 12.566  0.804E-01  0.804E-01
 12.576  0.783E-01  0.783E-01
 12.586  0.759E-01  0.759E-01
 12.596  0.734E-01  0.734E-01
 12.606  0.707E-01  0.707E-01
 12.616  0.679E-01  0.679E-01
 12.626  0.651E-01  0.651E-01
 12.636  0.622E-01  0.622E-01
 12.646  0.594E-01  0.594E-01
 12.656  0.567E-01  0.567E-01
 12.666  0.542E-01  0.542E-01
 12.676  0.519E-01  0.519E-01
 12.686  0.497E-01  0.497E-01
 12.696  0.478E-01  0.478E-01
 12.706  0.462E-01  0.462E-01
 12.716  0.448E-01  0.448E-01
 12.726  0.437E-01  0.437E-01
 12.736  0.429E-01  0.429E-01
 12.746  0.423E-01  0.423E-01
 12.756  0.419E-01  0.419E-01
 12.766  0.418E-01  0.418E-01
 12.776  0.419E-01  0.419E-01
 12.786  0.422E-01  0.422E-01
 12.796  0.426E-01  0.426E-01
 12.806  0.433E-01  0.433E-01
 12.816  0.440E-01  0.440E-01
 12.826  0.449E-01  0.449E-01
 12.836  0.459E-01  0.459E-01
 12.846  0.469E-01  0.469E-01
 12.856  0.481E-01  0.481E-01
 12.866  0.493E-01  0.493E-01
 12.876  0.505E-01  0.505E-01
 12.886  0.517E-01  0.517E-01
 12.896  0.529E-01  0.529E-01
 12.906  0.541E-01  0.541E-01
 12.916  0.551E-01  0.551E-01
 12.926  0.561E-01  0.561E-01
 12.936  0.570E-01  0.570E-01
 12.946  0.577E-01  0.577E-01
 12.956  0.582E-01  0.582E-01
 12.966  0.585E-01  0.585E-01
 12.976  0.587E-01  0.587E-01
 12.986  0.586E-01  0.586E-01
 12.996  0.582E-01  0.582E-01
 13.006  0.576E-01  0.576E-01
 13.016  0.569E-01  0.569E-01
 13.026  0.559E-01  0.559E-01
 13.036  0.547E-01  0.547E-01
 13.046  0.534E-01  0.534E-01
 13.056  0.519E-01  0.519E-01
 13.066  0.503E-01  0.503E-01
 13.076  0.487E-01  0.487E-01
 13.086  0.470E-01  0.470E-01
 13.096  0.453E-01  0.453E-01
 13.106  0.437E-01  0.437E-01
 13.116  0.421E-01  0.421E-01
 13.126  0.405E-01  0.405E-01
 13.136  0.391E-01  0.391E-01
 13.146  0.378E-01  0.378E-01
 13.156  0.365E-01  0.365E-01
 13.166  0.354E-01  0.354E-01
 13.176  0.344E-01  0.344E-01
 13.186  0.335E-01  0.335E-01
 13.196  0.327E-01  0.327E-01
 13.206  0.320E-01  0.320E-01
 13.216  0.314E-01  0.314E-01
 13.226  0.308E-01  0.308E-01
 13.236  0.304E-01  0.304E-01
 13.246  0.300E-01  0.300E-01
 13.256  0.297E-01  0.297E-01
 13.266  0.294E-01  0.294E-01
 13.276  0.292E-01  0.292E-01
 13.286  0.290E-01  0.290E-01
 13.296  0.289E-01  0.289E-01
 13.306  0.288E-01  0.288E-01
 13.316  0.287E-01  0.287E-01
 13.326  0.286E-01  0.286E-01
 13.336  0.285E-01  0.285E-01
 13.346  0.285E-01  0.285E-01
 13.356  0.284E-01  0.284E-01
 13.366  0.283E-01  0.283E-01
 13.376  0.282E-01  0.282E-01
 13.386  0.281E-01  0.281E-01
 13.396  0.279E-01  0.279E-01
 13.406  0.278E-01  0.278E-01
 13.416  0.276E-01  0.276E-01
 13.426  0.273E-01  0.273E-01
 13.436  0.271E-01  0.271E-01
 13.446  0.268E-01  0.268E-01
 13.456  0.264E-01  0.264E-01
 13.466  0.261E-01  0.261E-01
 13.476  0.257E-01  0.257E-01
 13.486  0.253E-01  0.253E-01
 13.496  0.249E-01  0.249E-01
 13.506  0.245E-01  0.245E-01
 13.516  0.241E-01  0.241E-01
 13.526  0.237E-01  0.237E-01
 13.536  0.233E-01  0.233E-01
 13.546  0.229E-01  0.229E-01
 13.556  0.225E-01  0.225E-01
 13.566  0.222E-01  0.222E-01
 13.576  0.218E-01  0.218E-01
 13.586  0.215E-01  0.215E-01
 13.596  0.213E-01  0.213E-01
 13.606  0.210E-01  0.210E-01
 13.616  0.209E-01  0.209E-01
 13.626  0.208E-01  0.208E-01
 13.636  0.207E-01  0.207E-01
 13.646  0.207E-01  0.207E-01
 13.656  0.208E-01  0.208E-01
 13.666  0.209E-01  0.209E-01
 13.676  0.211E-01  0.211E-01
 13.686  0.213E-01  0.213E-01
 13.696  0.215E-01  0.215E-01
 13.706  0.218E-01  0.218E-01
 13.716  0.222E-01  0.222E-01
 13.726  0.225E-01  0.225E-01
 13.736  0.229E-01  0.229E-01
 13.746  0.232E-01  0.232E-01
 13.756  0.236E-01  0.236E-01
 13.766  0.240E-01  0.240E-01
 13.776  0.244E-01  0.244E-01
 13.786  0.248E-01  0.248E-01
 13.796  0.252E-01  0.252E-01
 13.806  0.257E-01  0.257E-01
 13.816  0.261E-01  0.261E-01
 13.826  0.266E-01  0.266E-01
 13.836  0.271E-01  0.271E-01
 13.846  0.277E-01  0.277E-01
 13.856  0.283E-01  0.283E-01
 13.866  0.289E-01  0.289E-01
 13.876  0.296E-01  0.296E-01
 13.886  0.303E-01  0.303E-01
 13.896  0.310E-01  0.310E-01
 13.906  0.317E-01  0.317E-01
 13.916  0.324E-01  0.324E-01
 13.926  0.331E-01  0.331E-01
 13.936  0.337E-01  0.337E-01
 13.946  0.343E-01  0.343E-01
 13.956  0.348E-01  0.348E-01
 13.966  0.351E-01  0.351E-01
 13.976  0.354E-01  0.354E-01
 13.986  0.356E-01  0.356E-01
 13.996  0.357E-01  0.357E-01
 14.006  0.356E-01  0.356E-01
 14.016  0.354E-01  0.354E-01
 14.026  0.351E-01  0.351E-01
 14.036  0.347E-01  0.347E-01
 14.046  0.343E-01  0.343E-01
 14.056  0.337E-01  0.337E-01
 14.066  0.332E-01  0.332E-01
 14.076  0.325E-01  0.325E-01
 14.086  0.319E-01  0.319E-01
 14.096  0.312E-01  0.312E-01
 14.106  0.306E-01  0.306E-01
 14.116  0.300E-01  0.300E-01
 14.126  0.294E-01  0.294E-01
 14.136  0.288E-01  0.288E-01
 14.146  0.283E-01  0.283E-01
 14.156  0.278E-01  0.278E-01
 14.166  0.274E-01  0.274E-01
 14.176  0.271E-01  0.271E-01
 14.186  0.268E-01  0.268E-01
 14.196  0.266E-01  0.266E-01
 14.206  0.265E-01  0.265E-01
 14.216  0.264E-01  0.264E-01
 14.226  0.264E-01  0.264E-01
 14.236  0.264E-01  0.264E-01
 14.246  0.266E-01  0.266E-01
 14.256  0.268E-01  0.268E-01
 14.266  0.270E-01  0.270E-01
 14.276  0.274E-01  0.274E-01
 14.286  0.278E-01  0.278E-01
 14.296  0.283E-01  0.283E-01
 14.306  0.288E-01  0.288E-01
 14.316  0.295E-01  0.295E-01
 14.326  0.302E-01  0.302E-01
 14.336  0.311E-01  0.311E-01
 14.346  0.320E-01  0.320E-01
 14.356  0.330E-01  0.330E-01
 14.366  0.340E-01  0.340E-01
 14.376  0.352E-01  0.352E-01
 14.386  0.364E-01  0.364E-01
 14.396  0.376E-01  0.376E-01
 14.406  0.389E-01  0.389E-01
 14.416  0.403E-01  0.403E-01
 14.426  0.416E-01  0.416E-01
 14.436  0.429E-01  0.429E-01
 14.446  0.441E-01  0.441E-01
 14.456  0.453E-01  0.453E-01
 14.466  0.464E-01  0.464E-01
 14.476  0.474E-01  0.474E-01
 14.486  0.483E-01  0.483E-01
 14.496  0.490E-01  0.490E-01
 14.506  0.496E-01  0.496E-01
 14.516  0.500E-01  0.500E-01
 14.526  0.503E-01  0.503E-01
 14.536  0.503E-01  0.503E-01
 14.546  0.502E-01  0.502E-01
 14.556  0.499E-01  0.499E-01
 14.566  0.494E-01  0.494E-01
 14.576  0.488E-01  0.488E-01
 14.586  0.481E-01  0.481E-01
 14.596  0.472E-01  0.472E-01
 14.606  0.462E-01  0.462E-01
 14.616  0.451E-01  0.451E-01
 14.626  0.440E-01  0.440E-01
 14.636  0.429E-01  0.429E-01
 14.646  0.417E-01  0.417E-01
 14.656  0.405E-01  0.405E-01
 14.666  0.394E-01  0.394E-01
 14.676  0.383E-01  0.383E-01
 14.686  0.373E-01  0.373E-01
 14.696  0.363E-01  0.363E-01
 14.706  0.354E-01  0.354E-01
 14.716  0.346E-01  0.346E-01
 14.726  0.338E-01  0.338E-01
 14.736  0.332E-01  0.332E-01
 14.746  0.327E-01  0.327E-01
 14.756  0.323E-01  0.323E-01
 14.766  0.320E-01  0.320E-01
 14.776  0.318E-01  0.318E-01
 14.786  0.317E-01  0.317E-01
 14.796  0.317E-01  0.317E-01
 14.806  0.318E-01  0.318E-01
 14.816  0.319E-01  0.319E-01
 14.826  0.322E-01  0.322E-01
 14.836  0.324E-01  0.324E-01
 14.846  0.328E-01  0.328E-01
 14.856  0.331E-01  0.331E-01
 14.866  0.335E-01  0.335E-01
 14.876  0.338E-01  0.338E-01
 14.886  0.342E-01  0.342E-01
 14.896  0.344E-01  0.344E-01
 14.906  0.346E-01  0.346E-01
 14.916  0.347E-01  0.347E-01
 14.926  0.347E-01  0.347E-01
 14.936  0.347E-01  0.347E-01
 14.946  0.344E-01  0.344E-01
 14.956  0.341E-01  0.341E-01
 14.966  0.336E-01  0.336E-01
 14.976  0.331E-01  0.331E-01
 14.986  0.324E-01  0.324E-01
 14.996  0.316E-01  0.316E-01
 15.006  0.308E-01  0.308E-01
 15.016  0.299E-01  0.299E-01
 15.026  0.289E-01  0.289E-01
 15.036  0.279E-01  0.279E-01
 15.046  0.269E-01  0.269E-01
 15.056  0.258E-01  0.258E-01
 15.066  0.248E-01  0.248E-01
 15.076  0.238E-01  0.238E-01
 15.086  0.228E-01  0.228E-01
 15.096  0.219E-01  0.219E-01
 15.106  0.209E-01  0.209E-01
 15.116  0.201E-01  0.201E-01
 15.126  0.192E-01  0.192E-01
 15.136  0.184E-01  0.184E-01
 15.146  0.176E-01  0.176E-01
 15.156  0.168E-01  0.168E-01
 15.166  0.161E-01  0.161E-01
 15.176  0.155E-01  0.155E-01
 15.186  0.148E-01  0.148E-01
 15.196  0.142E-01  0.142E-01
 15.206  0.137E-01  0.137E-01
 15.216  0.131E-01  0.131E-01
 15.226  0.127E-01  0.127E-01
 15.236  0.123E-01  0.123E-01
 15.246  0.119E-01  0.119E-01
 15.256  0.116E-01  0.116E-01
 15.266  0.113E-01  0.113E-01
 15.276  0.111E-01  0.111E-01
 15.286  0.109E-01  0.109E-01
 15.296  0.108E-01  0.108E-01
 15.306  0.108E-01  0.108E-01
 15.316  0.107E-01  0.107E-01
 15.326  0.107E-01  0.107E-01
 15.336  0.108E-01  0.108E-01
 15.346  0.108E-01  0.108E-01
 15.356  0.109E-01  0.109E-01
 15.366  0.109E-01  0.109E-01
 15.376  0.110E-01  0.110E-01
 15.386  0.110E-01  0.110E-01
 15.396  0.110E-01  0.110E-01
 15.406  0.110E-01  0.110E-01
 15.416  0.110E-01  0.110E-01
 15.426  0.109E-01  0.109E-01
 15.436  0.108E-01  0.108E-01
 15.446  0.107E-01  0.107E-01
 15.456  0.105E-01  0.105E-01
 15.466  0.103E-01  0.103E-01
 15.476  0.100E-01  0.100E-01
 15.486  0.973E-02  0.973E-02
 15.496  0.941E-02  0.941E-02
 15.506  0.905E-02  0.905E-02
 15.516  0.868E-02  0.868E-02
 15.526  0.830E-02  0.830E-02
 15.536  0.791E-02  0.791E-02
 15.546  0.752E-02  0.752E-02
 15.556  0.715E-02  0.715E-02
 15.566  0.679E-02  0.679E-02
 15.576  0.646E-02  0.646E-02
 15.586  0.616E-02  0.616E-02
 15.596  0.589E-02  0.589E-02
 15.606  0.566E-02  0.566E-02
 15.616  0.547E-02  0.547E-02
 15.626  0.531E-02  0.531E-02
 15.636  0.520E-02  0.520E-02
 15.646  0.512E-02  0.512E-02
 15.656  0.507E-02  0.507E-02
 15.666  0.505E-02  0.505E-02
 15.676  0.505E-02  0.505E-02
 15.686  0.507E-02  0.507E-02
 15.696  0.510E-02  0.510E-02
 15.706  0.514E-02  0.514E-02
 15.716  0.518E-02  0.518E-02
 15.726  0.521E-02  0.521E-02
 15.736  0.524E-02  0.524E-02
 15.746  0.526E-02  0.526E-02
 15.756  0.526E-02  0.526E-02
 15.766  0.526E-02  0.526E-02
 15.776  0.524E-02  0.524E-02
 15.786  0.521E-02  0.521E-02
 15.796  0.518E-02  0.518E-02
 15.806  0.514E-02  0.514E-02
 15.816  0.510E-02  0.510E-02
 15.826  0.507E-02  0.507E-02
 15.836  0.504E-02  0.504E-02
 15.846  0.503E-02  0.503E-02
 15.856  0.503E-02  0.503E-02
 15.866  0.505E-02  0.505E-02
 15.876  0.508E-02  0.508E-02
 15.886  0.514E-02  0.514E-02
 15.896  0.521E-02  0.521E-02
 15.906  0.529E-02  0.529E-02
 15.916  0.538E-02  0.538E-02
 15.926  0.548E-02  0.548E-02
 15.936  0.558E-02  0.558E-02
 15.946  0.567E-02  0.567E-02
 15.956  0.575E-02  0.575E-02
 15.966  0.582E-02  0.582E-02
 15.976  0.586E-02  0.586E-02
 15.986  0.587E-02  0.587E-02
 15.996  0.586E-02  0.586E-02
 16.006  0.581E-02  0.581E-02
 16.016  0.573E-02  0.573E-02
 16.026  0.562E-02  0.562E-02
 16.036  0.548E-02  0.548E-02
 16.046  0.532E-02  0.532E-02
 16.056  0.513E-02  0.513E-02
 16.066  0.493E-02  0.493E-02
 16.076  0.472E-02  0.472E-02
 16.086  0.450E-02  0.450E-02
 16.096  0.428E-02  0.428E-02
 16.106  0.406E-02  0.406E-02
 16.116  0.384E-02  0.384E-02
 16.126  0.364E-02  0.364E-02
 16.136  0.344E-02  0.344E-02
 16.146  0.325E-02  0.325E-02
 16.156  0.308E-02  0.308E-02
 16.166  0.292E-02  0.292E-02
 16.176  0.277E-02  0.277E-02
 16.186  0.263E-02  0.263E-02
 16.196  0.251E-02  0.251E-02
 16.206  0.240E-02  0.240E-02
 16.216  0.229E-02  0.229E-02
 16.226  0.220E-02  0.220E-02
 16.236  0.212E-02  0.212E-02
 16.246  0.204E-02  0.204E-02
 16.256  0.198E-02  0.198E-02
 16.266  0.192E-02  0.192E-02
 16.276  0.187E-02  0.187E-02
 16.286  0.183E-02  0.183E-02
 16.296  0.180E-02  0.180E-02
 16.306  0.177E-02  0.177E-02
 16.316  0.175E-02  0.175E-02
 16.326  0.173E-02  0.173E-02
 16.336  0.172E-02  0.172E-02
 16.346  0.171E-02  0.171E-02
 16.356  0.171E-02  0.171E-02
 16.366  0.170E-02  0.170E-02
 16.376  0.169E-02  0.169E-02
 16.386  0.168E-02  0.168E-02
 16.396  0.167E-02  0.167E-02
 16.406  0.165E-02  0.165E-02
 16.416  0.163E-02  0.163E-02
 16.426  0.160E-02  0.160E-02
 16.436  0.157E-02  0.157E-02
 16.446  0.153E-02  0.153E-02
 16.456  0.149E-02  0.149E-02
 16.466  0.145E-02  0.145E-02
 16.476  0.141E-02  0.141E-02
 16.486  0.136E-02  0.136E-02
 16.496  0.132E-02  0.132E-02
 16.506  0.128E-02  0.128E-02
 16.516  0.124E-02  0.124E-02
 16.526  0.121E-02  0.121E-02
 16.536  0.118E-02  0.118E-02
 16.546  0.116E-02  0.116E-02
 16.556  0.114E-02  0.114E-02
 16.566  0.113E-02  0.113E-02
 16.576  0.112E-02  0.112E-02
 16.586  0.112E-02  0.112E-02
 16.596  0.113E-02  0.113E-02
 16.606  0.113E-02  0.113E-02
 16.616  0.114E-02  0.114E-02
 16.626  0.115E-02  0.115E-02
 16.636  0.116E-02  0.116E-02
 16.646  0.117E-02  0.117E-02
 16.656  0.117E-02  0.117E-02
 16.666  0.117E-02  0.117E-02
 16.676  0.116E-02  0.116E-02
 16.686  0.115E-02  0.115E-02
 16.696  0.114E-02  0.114E-02
 16.706  0.111E-02  0.111E-02
 16.716  0.108E-02  0.108E-02
 16.726  0.104E-02  0.104E-02
 16.736  0.100E-02  0.100E-02
 16.746  0.951E-03  0.951E-03
 16.756  0.897E-03  0.897E-03
 16.766  0.840E-03  0.840E-03
 16.776  0.780E-03  0.780E-03
 16.786  0.718E-03  0.718E-03
 16.796  0.655E-03  0.655E-03
 16.806  0.592E-03  0.592E-03
 16.816  0.531E-03  0.531E-03
 16.826  0.471E-03  0.471E-03
 16.836  0.415E-03  0.415E-03
 16.846  0.362E-03  0.362E-03
 16.856  0.312E-03  0.312E-03
 16.866  0.267E-03  0.267E-03
 16.876  0.226E-03  0.226E-03
 16.886  0.190E-03  0.190E-03
 16.896  0.158E-03  0.158E-03
 16.906  0.130E-03  0.130E-03
 16.916  0.106E-03  0.106E-03
 16.926  0.851E-04  0.851E-04
 16.936  0.679E-04  0.679E-04
 16.946  0.536E-04  0.536E-04
 16.956  0.419E-04  0.419E-04
 16.966  0.324E-04  0.324E-04
 16.976  0.248E-04  0.248E-04
 16.986  0.188E-04  0.188E-04
 16.996  0.141E-04  0.141E-04
 17.006  0.105E-04  0.105E-04
 17.016  0.768E-05  0.768E-05
 17.026  0.558E-05  0.558E-05
 17.036  0.401E-05  0.401E-05
 17.046  0.285E-05  0.285E-05
 17.056  0.201E-05  0.201E-05
 17.066  0.140E-05  0.140E-05
 17.076  0.965E-06  0.965E-06
 17.086  0.658E-06  0.658E-06
 17.096  0.444E-06  0.444E-06
 17.106  0.296E-06  0.296E-06
 17.116  0.196E-06  0.196E-06
 17.126  0.128E-06  0.128E-06
 17.136  0.826E-07  0.826E-07
 17.146  0.528E-07  0.528E-07
 17.156  0.334E-07  0.334E-07
 17.166  0.209E-07  0.209E-07
 17.176  0.130E-07  0.130E-07
 17.186  0.794E-08  0.794E-08
 17.196  0.481E-08  0.481E-08
 17.206  0.289E-08  0.289E-08
 17.216  0.171E-08  0.171E-08
 17.226  0.101E-08  0.101E-08
 17.236  0.585E-09  0.585E-09
 17.246  0.336E-09  0.336E-09
 17.256  0.191E-09  0.191E-09
 17.266  0.108E-09  0.108E-09
 17.276  0.602E-10  0.602E-10
 17.286  0.333E-10  0.333E-10
 17.296  0.183E-10  0.183E-10
 17.306  0.994E-11  0.994E-11
 17.316  0.538E-11  0.538E-11
 17.326  0.290E-11  0.290E-11
 17.336  0.156E-11  0.156E-11
 17.346  0.838E-12  0.838E-12
 17.356  0.452E-12  0.452E-12
 17.366  0.247E-12  0.247E-12
 17.376  0.136E-12  0.136E-12
 17.386  0.766E-13  0.766E-13
 17.396  0.440E-13  0.440E-13
 17.406  0.258E-13  0.258E-13
 17.416  0.154E-13  0.154E-13
 17.426  0.694E-14  0.694E-14
 17.436  0.466E-14  0.466E-14
 17.446  0.309E-14  0.309E-14
 17.456  0.203E-14  0.203E-14
 17.466  0.132E-14  0.132E-14
 17.476  0.845E-15  0.845E-15
