# E (eV)   ldos(E)   pdos(E)   
 -8.271  0.668E-05  0.668E-05
 -8.261  0.107E-04  0.107E-04
 -8.251  0.168E-04  0.168E-04
 -8.241  0.263E-04  0.263E-04
 -8.231  0.407E-04  0.407E-04
 -8.221  0.622E-04  0.622E-04
 -8.211  0.943E-04  0.943E-04
 -8.201  0.141E-03  0.141E-03
 -8.191  0.209E-03  0.209E-03
 -8.181  0.307E-03  0.307E-03
 -8.171  0.446E-03  0.446E-03
 -8.161  0.641E-03  0.641E-03
 -8.151  0.912E-03  0.912E-03
 -8.141  0.128E-02  0.128E-02
 -8.131  0.179E-02  0.179E-02
 -8.121  0.246E-02  0.246E-02
 -8.111  0.336E-02  0.336E-02
 -8.101  0.454E-02  0.454E-02
 -8.091  0.606E-02  0.606E-02
 -8.081  0.802E-02  0.802E-02
 -8.071  0.105E-01  0.105E-01
 -8.061  0.136E-01  0.136E-01
 -8.051  0.174E-01  0.174E-01
 -8.041  0.221E-01  0.221E-01
 -8.031  0.277E-01  0.277E-01
 -8.021  0.344E-01  0.344E-01
 -8.011  0.423E-01  0.423E-01
 -8.001  0.515E-01  0.515E-01
 -7.991  0.620E-01  0.620E-01
 -7.981  0.739E-01  0.739E-01
 -7.971  0.871E-01  0.871E-01
 -7.961  0.102E+00  0.102E+00
 -7.951  0.118E+00  0.118E+00
 -7.941  0.134E+00  0.134E+00
 -7.931  0.152E+00  0.152E+00
 -7.921  0.170E+00  0.170E+00
 -7.911  0.189E+00  0.189E+00
 -7.901  0.207E+00  0.207E+00
 -7.891  0.225E+00  0.225E+00
 -7.881  0.242E+00  0.242E+00
 -7.871  0.257E+00  0.257E+00
 -7.861  0.271E+00  0.271E+00
 -7.851  0.283E+00  0.283E+00
 -7.841  0.291E+00  0.291E+00
 -7.831  0.298E+00  0.298E+00
 -7.821  0.301E+00  0.301E+00
 -7.811  0.301E+00  0.301E+00
 -7.801  0.298E+00  0.298E+00
 -7.791  0.292E+00  0.292E+00
 -7.781  0.284E+00  0.284E+00
 -7.771  0.273E+00  0.273E+00
 -7.761  0.259E+00  0.259E+00
 -7.751  0.244E+00  0.244E+00
 -7.741  0.228E+00  0.228E+00
 -7.731  0.210E+00  0.210E+00
 -7.721  0.192E+00  0.192E+00
 -7.711  0.174E+00  0.174E+00
 -7.701  0.156E+00  0.156E+00
 -7.691  0.138E+00  0.138E+00
 -7.681  0.122E+00  0.122E+00
 -7.671  0.106E+00  0.106E+00
 -7.661  0.912E-01  0.912E-01
 -7.651  0.779E-01  0.779E-01
 -7.641  0.659E-01  0.659E-01
 -7.631  0.552E-01  0.552E-01
 -7.621  0.459E-01  0.459E-01
 -7.611  0.378E-01  0.378E-01
 -7.601  0.308E-01  0.308E-01
 -7.591  0.250E-01  0.250E-01
 -7.581  0.200E-01  0.200E-01
 -7.571  0.160E-01  0.160E-01
 -7.561  0.126E-01  0.126E-01
 -7.551  0.991E-02  0.991E-02
 -7.541  0.773E-02  0.773E-02
 -7.531  0.599E-02  0.599E-02
 -7.521  0.462E-02  0.462E-02
 -7.511  0.354E-02  0.354E-02
 -7.501  0.270E-02  0.270E-02
 -7.491  0.206E-02  0.206E-02
 -7.481  0.156E-02  0.156E-02
 -7.471  0.118E-02  0.118E-02
 -7.461  0.889E-03  0.889E-03
 -7.451  0.669E-03  0.669E-03
 -7.441  0.503E-03  0.503E-03
 -7.431  0.377E-03  0.377E-03
 -7.421  0.283E-03  0.283E-03
 -7.411  0.212E-03  0.212E-03
 -7.401  0.158E-03  0.158E-03
 -7.391  0.118E-03  0.118E-03
 -7.381  0.876E-04  0.876E-04
 -7.371  0.649E-04  0.649E-04
 -7.361  0.480E-04  0.480E-04
 -7.351  0.353E-04  0.353E-04
 -7.341  0.258E-04  0.258E-04
 -7.331  0.188E-04  0.188E-04
 -7.321  0.136E-04  0.136E-04
 -7.311  0.980E-05  0.980E-05
 -7.301  0.701E-05  0.701E-05
 -7.291  0.497E-05  0.497E-05
 -7.281  0.350E-05  0.350E-05
 -7.271  0.245E-05  0.245E-05
 -7.261  0.170E-05  0.170E-05
 -7.251  0.117E-05  0.117E-05
 -7.241  0.794E-06  0.794E-06
 -7.231  0.536E-06  0.536E-06
 -7.221  0.359E-06  0.359E-06
 -7.211  0.238E-06  0.238E-06
 -7.201  0.156E-06  0.156E-06
 -7.191  0.102E-06  0.102E-06
 -7.181  0.654E-07  0.654E-07
 -7.171  0.417E-07  0.417E-07
 -7.161  0.264E-07  0.264E-07
 -7.151  0.165E-07  0.165E-07
 -7.141  0.102E-07  0.102E-07
 -7.131  0.627E-08  0.627E-08
 -7.121  0.381E-08  0.381E-08
 -7.111  0.229E-08  0.229E-08
 -7.101  0.136E-08  0.136E-08
 -7.091  0.801E-09  0.801E-09
 -7.081  0.467E-09  0.467E-09
 -7.071  0.270E-09  0.270E-09
 -7.061  0.154E-09  0.154E-09
 -7.051  0.870E-10  0.870E-10
 -7.041  0.487E-10  0.487E-10
 -7.031  0.270E-10  0.270E-10
 -7.021  0.148E-10  0.148E-10
 -7.011  0.801E-11  0.801E-11
 -7.001  0.430E-11  0.430E-11
 -6.991  0.228E-11  0.228E-11
 -6.981  0.120E-11  0.120E-11
 -6.971  0.623E-12  0.623E-12
 -6.961  0.319E-12  0.319E-12
 -6.951  0.162E-12  0.162E-12
 -6.941  0.807E-13  0.807E-13
 -6.931  0.400E-13  0.400E-13
 -6.921  0.198E-13  0.198E-13
 -6.911  0.957E-14  0.957E-14
 -6.901  0.440E-14  0.440E-14
 -6.891  0.171E-14  0.171E-14
 -6.881  0.639E-15  0.639E-15
 -6.871  0.418E-16  0.418E-16
 -6.861  0.949E-19  0.949E-19
 -6.851  0.000E+00  0.000E+00
 -6.841  0.000E+00  0.000E+00
 -6.831  0.000E+00  0.000E+00
 -6.821  0.000E+00  0.000E+00
 -6.811  0.000E+00  0.000E+00
 -6.801  0.000E+00  0.000E+00
 -6.791  0.000E+00  0.000E+00
 -6.781  0.000E+00  0.000E+00
 -6.771  0.000E+00  0.000E+00
 -6.761  0.000E+00  0.000E+00
 -6.751  0.000E+00  0.000E+00
 -6.741  0.000E+00  0.000E+00
 -6.731  0.000E+00  0.000E+00
 -6.721  0.000E+00  0.000E+00
 -6.711  0.000E+00  0.000E+00
 -6.701  0.000E+00  0.000E+00
 -6.691  0.000E+00  0.000E+00
 -6.681  0.000E+00  0.000E+00
 -6.671  0.000E+00  0.000E+00
 -6.661  0.000E+00  0.000E+00
 -6.651  0.000E+00  0.000E+00
 -6.641  0.000E+00  0.000E+00
 -6.631  0.000E+00  0.000E+00
 -6.621  0.000E+00  0.000E+00
 -6.611  0.000E+00  0.000E+00
 -6.601  0.000E+00  0.000E+00
 -6.591  0.000E+00  0.000E+00
 -6.581  0.000E+00  0.000E+00
 -6.571  0.000E+00  0.000E+00
 -6.561  0.000E+00  0.000E+00
 -6.551  0.000E+00  0.000E+00
 -6.541  0.000E+00  0.000E+00
 -6.531  0.000E+00  0.000E+00
 -6.521  0.000E+00  0.000E+00
 -6.511  0.000E+00  0.000E+00
 -6.501  0.000E+00  0.000E+00
 -6.491  0.000E+00  0.000E+00
 -6.481  0.000E+00  0.000E+00
 -6.471  0.000E+00  0.000E+00
 -6.461  0.000E+00  0.000E+00
 -6.451  0.000E+00  0.000E+00
 -6.441  0.000E+00  0.000E+00
 -6.431  0.000E+00  0.000E+00
 -6.421  0.000E+00  0.000E+00
 -6.411  0.000E+00  0.000E+00
 -6.401  0.000E+00  0.000E+00
 -6.391  0.000E+00  0.000E+00
 -6.381  0.000E+00  0.000E+00
 -6.371  0.000E+00  0.000E+00
 -6.361  0.000E+00  0.000E+00
 -6.351  0.000E+00  0.000E+00
 -6.341  0.000E+00  0.000E+00
 -6.331  0.000E+00  0.000E+00
 -6.321  0.000E+00  0.000E+00
 -6.311  0.000E+00  0.000E+00
 -6.301  0.000E+00  0.000E+00
 -6.291  0.000E+00  0.000E+00
 -6.281  0.000E+00  0.000E+00
 -6.271  0.000E+00  0.000E+00
 -6.261  0.000E+00  0.000E+00
 -6.251  0.000E+00  0.000E+00
 -6.241  0.000E+00  0.000E+00
 -6.231  0.000E+00  0.000E+00
 -6.221  0.000E+00  0.000E+00
 -6.211  0.000E+00  0.000E+00
 -6.201  0.000E+00  0.000E+00
 -6.191  0.000E+00  0.000E+00
 -6.181  0.000E+00  0.000E+00
 -6.171  0.000E+00  0.000E+00
 -6.161  0.000E+00  0.000E+00
 -6.151  0.000E+00  0.000E+00
 -6.141  0.000E+00  0.000E+00
 -6.131  0.000E+00  0.000E+00
 -6.121  0.000E+00  0.000E+00
 -6.111  0.000E+00  0.000E+00
 -6.101  0.000E+00  0.000E+00
 -6.091  0.000E+00  0.000E+00
 -6.081  0.000E+00  0.000E+00
 -6.071  0.000E+00  0.000E+00
 -6.061  0.000E+00  0.000E+00
 -6.051  0.000E+00  0.000E+00
 -6.041  0.000E+00  0.000E+00
 -6.031  0.000E+00  0.000E+00
 -6.021  0.000E+00  0.000E+00
 -6.011  0.000E+00  0.000E+00
 -6.001  0.000E+00  0.000E+00
 -5.991  0.000E+00  0.000E+00
 -5.981  0.000E+00  0.000E+00
 -5.971  0.000E+00  0.000E+00
 -5.961  0.000E+00  0.000E+00
 -5.951  0.000E+00  0.000E+00
 -5.941  0.000E+00  0.000E+00
 -5.931  0.000E+00  0.000E+00
 -5.921  0.000E+00  0.000E+00
 -5.911  0.000E+00  0.000E+00
 -5.901  0.000E+00  0.000E+00
 -5.891  0.000E+00  0.000E+00
 -5.881  0.000E+00  0.000E+00
 -5.871  0.000E+00  0.000E+00
 -5.861  0.000E+00  0.000E+00
 -5.851  0.000E+00  0.000E+00
 -5.841  0.000E+00  0.000E+00
 -5.831  0.000E+00  0.000E+00
 -5.821  0.000E+00  0.000E+00
 -5.811  0.000E+00  0.000E+00
 -5.801  0.000E+00  0.000E+00
 -5.791  0.000E+00  0.000E+00
 -5.781  0.000E+00  0.000E+00
 -5.771  0.000E+00  0.000E+00
 -5.761  0.000E+00  0.000E+00
 -5.751  0.000E+00  0.000E+00
 -5.741  0.000E+00  0.000E+00
 -5.731  0.000E+00  0.000E+00
 -5.721  0.000E+00  0.000E+00
 -5.711  0.000E+00  0.000E+00
 -5.701  0.000E+00  0.000E+00
 -5.691  0.000E+00  0.000E+00
 -5.681  0.000E+00  0.000E+00
 -5.671  0.000E+00  0.000E+00
 -5.661  0.000E+00  0.000E+00
 -5.651  0.000E+00  0.000E+00
 -5.641  0.000E+00  0.000E+00
 -5.631  0.000E+00  0.000E+00
 -5.621  0.000E+00  0.000E+00
 -5.611  0.000E+00  0.000E+00
 -5.601  0.000E+00  0.000E+00
 -5.591  0.000E+00  0.000E+00
 -5.581  0.000E+00  0.000E+00
 -5.571  0.000E+00  0.000E+00
 -5.561  0.000E+00  0.000E+00
 -5.551  0.000E+00  0.000E+00
 -5.541  0.000E+00  0.000E+00
 -5.531  0.000E+00  0.000E+00
 -5.521  0.000E+00  0.000E+00
 -5.511  0.000E+00  0.000E+00
 -5.501  0.000E+00  0.000E+00
 -5.491  0.000E+00  0.000E+00
 -5.481  0.223E-14  0.223E-14
 -5.471  0.469E-14  0.469E-14
 -5.461  0.978E-14  0.978E-14
 -5.451  0.661E-13  0.661E-13
 -5.441  0.137E-12  0.137E-12
 -5.431  0.282E-12  0.282E-12
 -5.421  0.603E-12  0.603E-12
 -5.411  0.122E-11  0.122E-11
 -5.401  0.243E-11  0.243E-11
 -5.391  0.492E-11  0.492E-11
 -5.381  0.964E-11  0.964E-11
 -5.371  0.187E-10  0.187E-10
 -5.361  0.358E-10  0.358E-10
 -5.351  0.679E-10  0.679E-10
 -5.341  0.128E-09  0.128E-09
 -5.331  0.237E-09  0.237E-09
 -5.321  0.436E-09  0.436E-09
 -5.311  0.793E-09  0.793E-09
 -5.301  0.143E-08  0.143E-08
 -5.291  0.255E-08  0.255E-08
 -5.281  0.449E-08  0.449E-08
 -5.271  0.784E-08  0.784E-08
 -5.261  0.136E-07  0.136E-07
 -5.251  0.232E-07  0.232E-07
 -5.241  0.393E-07  0.393E-07
 -5.231  0.658E-07  0.658E-07
 -5.221  0.109E-06  0.109E-06
 -5.211  0.179E-06  0.179E-06
 -5.201  0.291E-06  0.291E-06
 -5.191  0.468E-06  0.468E-06
 -5.181  0.746E-06  0.746E-06
 -5.171  0.118E-05  0.118E-05
 -5.161  0.184E-05  0.184E-05
 -5.151  0.284E-05  0.284E-05
 -5.141  0.434E-05  0.434E-05
 -5.131  0.657E-05  0.657E-05
 -5.121  0.985E-05  0.985E-05
 -5.111  0.146E-04  0.146E-04
 -5.101  0.215E-04  0.215E-04
 -5.091  0.313E-04  0.313E-04
 -5.081  0.451E-04  0.451E-04
 -5.071  0.643E-04  0.643E-04
 -5.061  0.909E-04  0.909E-04
 -5.051  0.127E-03  0.127E-03
 -5.041  0.176E-03  0.176E-03
 -5.031  0.242E-03  0.242E-03
 -5.021  0.330E-03  0.330E-03
 -5.011  0.444E-03  0.444E-03
 -5.001  0.592E-03  0.592E-03
 -4.991  0.783E-03  0.783E-03
 -4.981  0.103E-02  0.103E-02
 -4.971  0.133E-02  0.133E-02
 -4.961  0.171E-02  0.171E-02
 -4.951  0.218E-02  0.218E-02
 -4.941  0.276E-02  0.276E-02
 -4.931  0.345E-02  0.345E-02
 -4.921  0.429E-02  0.429E-02
 -4.911  0.528E-02  0.528E-02
 -4.901  0.644E-02  0.644E-02
 -4.891  0.779E-02  0.779E-02
 -4.881  0.934E-02  0.934E-02
 -4.871  0.111E-01  0.111E-01
 -4.861  0.131E-01  0.131E-01
 -4.851  0.154E-01  0.154E-01
 -4.841  0.179E-01  0.179E-01
 -4.831  0.206E-01  0.206E-01
 -4.821  0.236E-01  0.236E-01
 -4.811  0.269E-01  0.269E-01
 -4.801  0.304E-01  0.304E-01
 -4.791  0.341E-01  0.341E-01
 -4.781  0.380E-01  0.380E-01
 -4.771  0.421E-01  0.421E-01
 -4.761  0.463E-01  0.463E-01
 -4.751  0.507E-01  0.507E-01
 -4.741  0.552E-01  0.552E-01
 -4.731  0.597E-01  0.597E-01
 -4.721  0.643E-01  0.643E-01
 -4.711  0.690E-01  0.690E-01
 -4.701  0.736E-01  0.736E-01
 -4.691  0.782E-01  0.782E-01
 -4.681  0.827E-01  0.827E-01
 -4.671  0.872E-01  0.872E-01
 -4.661  0.916E-01  0.916E-01
 -4.651  0.960E-01  0.960E-01
 -4.641  0.100E+00  0.100E+00
 -4.631  0.104E+00  0.104E+00
 -4.621  0.108E+00  0.108E+00
 -4.611  0.112E+00  0.112E+00
 -4.601  0.116E+00  0.116E+00
 -4.591  0.120E+00  0.120E+00
 -4.581  0.123E+00  0.123E+00
 -4.571  0.127E+00  0.127E+00
 -4.561  0.130E+00  0.130E+00
 -4.551  0.133E+00  0.133E+00
 -4.541  0.137E+00  0.137E+00
 -4.531  0.140E+00  0.140E+00
 -4.521  0.143E+00  0.143E+00
 -4.511  0.146E+00  0.146E+00
 -4.501  0.149E+00  0.149E+00
 -4.491  0.152E+00  0.152E+00
 -4.481  0.155E+00  0.155E+00
 -4.471  0.158E+00  0.158E+00
 -4.461  0.161E+00  0.161E+00
 -4.451  0.163E+00  0.163E+00
 -4.441  0.166E+00  0.166E+00
 -4.431  0.169E+00  0.169E+00
 -4.421  0.172E+00  0.172E+00
 -4.411  0.174E+00  0.174E+00
 -4.401  0.177E+00  0.177E+00
 -4.391  0.180E+00  0.180E+00
 -4.381  0.182E+00  0.182E+00
 -4.371  0.185E+00  0.185E+00
 -4.361  0.187E+00  0.187E+00
 -4.351  0.190E+00  0.190E+00
 -4.341  0.193E+00  0.193E+00
 -4.331  0.195E+00  0.195E+00
 -4.321  0.198E+00  0.198E+00
 -4.311  0.201E+00  0.201E+00
 -4.301  0.203E+00  0.203E+00
 -4.291  0.206E+00  0.206E+00
 -4.281  0.209E+00  0.209E+00
 -4.271  0.211E+00  0.211E+00
 -4.261  0.214E+00  0.214E+00
 -4.251  0.216E+00  0.216E+00
 -4.241  0.219E+00  0.219E+00
 -4.231  0.221E+00  0.221E+00
 -4.221  0.224E+00  0.224E+00
 -4.211  0.227E+00  0.227E+00
 -4.201  0.229E+00  0.229E+00
 -4.191  0.232E+00  0.232E+00
 -4.181  0.235E+00  0.235E+00
 -4.171  0.237E+00  0.237E+00
 -4.161  0.240E+00  0.240E+00
 -4.151  0.243E+00  0.243E+00
 -4.141  0.246E+00  0.246E+00
 -4.131  0.248E+00  0.248E+00
 -4.121  0.251E+00  0.251E+00
 -4.111  0.254E+00  0.254E+00
 -4.101  0.257E+00  0.257E+00
 -4.091  0.260E+00  0.260E+00
 -4.081  0.263E+00  0.263E+00
 -4.071  0.266E+00  0.266E+00
 -4.061  0.268E+00  0.268E+00
 -4.051  0.271E+00  0.271E+00
 -4.041  0.274E+00  0.274E+00
 -4.031  0.277E+00  0.277E+00
 -4.021  0.280E+00  0.280E+00
 -4.011  0.283E+00  0.283E+00
 -4.001  0.286E+00  0.286E+00
 -3.991  0.289E+00  0.289E+00
 -3.981  0.292E+00  0.292E+00
 -3.971  0.295E+00  0.295E+00
 -3.961  0.298E+00  0.298E+00
 -3.951  0.302E+00  0.302E+00
 -3.941  0.305E+00  0.305E+00
 -3.931  0.308E+00  0.308E+00
 -3.921  0.312E+00  0.312E+00
 -3.911  0.315E+00  0.315E+00
 -3.901  0.319E+00  0.319E+00
 -3.891  0.322E+00  0.322E+00
 -3.881  0.326E+00  0.326E+00
 -3.871  0.329E+00  0.329E+00
 -3.861  0.333E+00  0.333E+00
 -3.851  0.336E+00  0.336E+00
 -3.841  0.340E+00  0.340E+00
 -3.831  0.343E+00  0.343E+00
 -3.821  0.347E+00  0.347E+00
 -3.811  0.350E+00  0.350E+00
 -3.801  0.354E+00  0.354E+00
 -3.791  0.358E+00  0.358E+00
 -3.781  0.362E+00  0.362E+00
 -3.771  0.366E+00  0.366E+00
 -3.761  0.371E+00  0.371E+00
 -3.751  0.375E+00  0.375E+00
 -3.741  0.380E+00  0.380E+00
 -3.731  0.384E+00  0.384E+00
 -3.721  0.389E+00  0.389E+00
 -3.711  0.394E+00  0.394E+00
 -3.701  0.399E+00  0.399E+00
 -3.691  0.403E+00  0.403E+00
 -3.681  0.408E+00  0.408E+00
 -3.671  0.413E+00  0.413E+00
 -3.661  0.418E+00  0.418E+00
 -3.651  0.423E+00  0.423E+00
 -3.641  0.428E+00  0.428E+00
 -3.631  0.433E+00  0.433E+00
 -3.621  0.438E+00  0.438E+00
 -3.611  0.443E+00  0.443E+00
 -3.601  0.449E+00  0.449E+00
 -3.591  0.455E+00  0.455E+00
 -3.581  0.461E+00  0.461E+00
 -3.571  0.467E+00  0.467E+00
 -3.561  0.474E+00  0.474E+00
 -3.551  0.481E+00  0.481E+00
 -3.541  0.488E+00  0.488E+00
 -3.531  0.495E+00  0.495E+00
 -3.521  0.503E+00  0.503E+00
 -3.511  0.510E+00  0.510E+00
 -3.501  0.518E+00  0.518E+00
 -3.491  0.526E+00  0.526E+00
 -3.481  0.535E+00  0.535E+00
 -3.471  0.543E+00  0.543E+00
 -3.461  0.552E+00  0.552E+00
 -3.451  0.561E+00  0.561E+00
 -3.441  0.571E+00  0.571E+00
 -3.431  0.580E+00  0.580E+00
 -3.421  0.591E+00  0.591E+00
 -3.411  0.602E+00  0.602E+00
 -3.401  0.613E+00  0.613E+00
 -3.391  0.625E+00  0.625E+00
 -3.381  0.637E+00  0.637E+00
 -3.371  0.651E+00  0.651E+00
 -3.361  0.664E+00  0.664E+00
 -3.351  0.679E+00  0.679E+00
 -3.341  0.693E+00  0.693E+00
 -3.331  0.709E+00  0.709E+00
 -3.321  0.724E+00  0.724E+00
 -3.311  0.740E+00  0.740E+00
 -3.301  0.756E+00  0.756E+00
 -3.291  0.772E+00  0.772E+00
 -3.281  0.787E+00  0.787E+00
 -3.271  0.803E+00  0.803E+00
 -3.261  0.818E+00  0.818E+00
 -3.251  0.833E+00  0.833E+00
 -3.241  0.848E+00  0.848E+00
 -3.231  0.862E+00  0.862E+00
 -3.221  0.876E+00  0.876E+00
 -3.211  0.889E+00  0.889E+00
 -3.201  0.902E+00  0.902E+00
 -3.191  0.914E+00  0.914E+00
 -3.181  0.925E+00  0.925E+00
 -3.171  0.935E+00  0.935E+00
 -3.161  0.945E+00  0.945E+00
 -3.151  0.954E+00  0.954E+00
 -3.141  0.962E+00  0.962E+00
 -3.131  0.969E+00  0.969E+00
 -3.121  0.976E+00  0.976E+00
 -3.111  0.982E+00  0.982E+00
 -3.101  0.987E+00  0.987E+00
 -3.091  0.992E+00  0.992E+00
 -3.081  0.996E+00  0.996E+00
 -3.071  0.100E+01  0.100E+01
 -3.061  0.100E+01  0.100E+01
 -3.051  0.101E+01  0.101E+01
 -3.041  0.101E+01  0.101E+01
 -3.031  0.101E+01  0.101E+01
 -3.021  0.102E+01  0.102E+01
 -3.011  0.102E+01  0.102E+01
 -3.001  0.102E+01  0.102E+01
 -2.991  0.102E+01  0.102E+01
 -2.981  0.103E+01  0.103E+01
 -2.971  0.103E+01  0.103E+01
 -2.961  0.103E+01  0.103E+01
 -2.951  0.104E+01  0.104E+01
 -2.941  0.104E+01  0.104E+01
 -2.931  0.105E+01  0.105E+01
 -2.921  0.105E+01  0.105E+01
 -2.911  0.106E+01  0.106E+01
 -2.901  0.106E+01  0.106E+01
 -2.891  0.107E+01  0.107E+01
 -2.881  0.107E+01  0.107E+01
 -2.871  0.108E+01  0.108E+01
 -2.861  0.109E+01  0.109E+01
 -2.851  0.109E+01  0.109E+01
 -2.841  0.110E+01  0.110E+01
 -2.831  0.111E+01  0.111E+01
 -2.821  0.111E+01  0.111E+01
 -2.811  0.112E+01  0.112E+01
 -2.801  0.113E+01  0.113E+01
 -2.791  0.113E+01  0.113E+01
 -2.781  0.114E+01  0.114E+01
 -2.771  0.115E+01  0.115E+01
 -2.761  0.115E+01  0.115E+01
 -2.751  0.115E+01  0.115E+01
 -2.741  0.115E+01  0.115E+01
 -2.731  0.115E+01  0.115E+01
 -2.721  0.114E+01  0.114E+01
 -2.711  0.113E+01  0.113E+01
 -2.701  0.112E+01  0.112E+01
 -2.691  0.110E+01  0.110E+01
 -2.681  0.108E+01  0.108E+01
 -2.671  0.106E+01  0.106E+01
 -2.661  0.103E+01  0.103E+01
 -2.651  0.998E+00  0.998E+00
 -2.641  0.960E+00  0.960E+00
 -2.631  0.919E+00  0.919E+00
 -2.621  0.874E+00  0.874E+00
 -2.611  0.826E+00  0.826E+00
 -2.601  0.776E+00  0.776E+00
 -2.591  0.723E+00  0.723E+00
 -2.581  0.670E+00  0.670E+00
 -2.571  0.616E+00  0.616E+00
 -2.561  0.561E+00  0.561E+00
 -2.551  0.508E+00  0.508E+00
 -2.541  0.456E+00  0.456E+00
 -2.531  0.406E+00  0.406E+00
 -2.521  0.359E+00  0.359E+00
 -2.511  0.314E+00  0.314E+00
 -2.501  0.273E+00  0.273E+00
 -2.491  0.235E+00  0.235E+00
 -2.481  0.200E+00  0.200E+00
 -2.471  0.169E+00  0.169E+00
 -2.461  0.142E+00  0.142E+00
 -2.451  0.118E+00  0.118E+00
 -2.441  0.971E-01  0.971E-01
 -2.431  0.791E-01  0.791E-01
 -2.421  0.639E-01  0.639E-01
 -2.411  0.511E-01  0.511E-01
 -2.401  0.405E-01  0.405E-01
 -2.391  0.318E-01  0.318E-01
 -2.381  0.248E-01  0.248E-01
 -2.371  0.191E-01  0.191E-01
 -2.361  0.145E-01  0.145E-01
 -2.351  0.110E-01  0.110E-01
 -2.341  0.822E-02  0.822E-02
 -2.331  0.609E-02  0.609E-02
 -2.321  0.447E-02  0.447E-02
 -2.311  0.324E-02  0.324E-02
 -2.301  0.233E-02  0.233E-02
 -2.291  0.166E-02  0.166E-02
 -2.281  0.117E-02  0.117E-02
 -2.271  0.818E-03  0.818E-03
 -2.261  0.565E-03  0.565E-03
 -2.251  0.387E-03  0.387E-03
 -2.241  0.262E-03  0.262E-03
 -2.231  0.176E-03  0.176E-03
 -2.221  0.117E-03  0.117E-03
 -2.211  0.767E-04  0.767E-04
 -2.201  0.499E-04  0.499E-04
 -2.191  0.322E-04  0.322E-04
 -2.181  0.205E-04  0.205E-04
 -2.171  0.129E-04  0.129E-04
 -2.161  0.809E-05  0.809E-05
 -2.151  0.500E-05  0.500E-05
 -2.141  0.306E-05  0.306E-05
 -2.131  0.185E-05  0.185E-05
 -2.121  0.111E-05  0.111E-05
 -2.111  0.660E-06  0.660E-06
 -2.101  0.388E-06  0.388E-06
 -2.091  0.226E-06  0.226E-06
 -2.081  0.130E-06  0.130E-06
 -2.071  0.740E-07  0.740E-07
 -2.061  0.417E-07  0.417E-07
 -2.051  0.233E-07  0.233E-07
 -2.041  0.129E-07  0.129E-07
 -2.031  0.703E-08  0.703E-08
 -2.021  0.380E-08  0.380E-08
 -2.011  0.204E-08  0.204E-08
 -2.001  0.108E-08  0.108E-08
 -1.991  0.566E-09  0.566E-09
 -1.981  0.293E-09  0.293E-09
 -1.971  0.151E-09  0.151E-09
 -1.961  0.765E-10  0.765E-10
 -1.951  0.383E-10  0.383E-10
 -1.941  0.189E-10  0.189E-10
 -1.931  0.890E-11  0.890E-11
 -1.921  0.421E-11  0.421E-11
 -1.911  0.193E-11  0.193E-11
 -1.901  0.765E-12  0.765E-12
 -1.891  0.230E-12  0.230E-12
 -1.881  0.524E-13  0.524E-13
 -1.871  0.000E+00  0.000E+00
 -1.861  0.000E+00  0.000E+00
 -1.851  0.000E+00  0.000E+00
 -1.841  0.000E+00  0.000E+00
 -1.831  0.000E+00  0.000E+00
 -1.821  0.000E+00  0.000E+00
 -1.811  0.000E+00  0.000E+00
 -1.801  0.000E+00  0.000E+00
 -1.791  0.000E+00  0.000E+00
 -1.781  0.000E+00  0.000E+00
 -1.771  0.000E+00  0.000E+00
 -1.761  0.000E+00  0.000E+00
 -1.751  0.000E+00  0.000E+00
 -1.741  0.000E+00  0.000E+00
 -1.731  0.000E+00  0.000E+00
 -1.721  0.000E+00  0.000E+00
 -1.711  0.000E+00  0.000E+00
 -1.701  0.000E+00  0.000E+00
 -1.691  0.000E+00  0.000E+00
 -1.681  0.000E+00  0.000E+00
 -1.671  0.000E+00  0.000E+00
 -1.661  0.000E+00  0.000E+00
 -1.651  0.000E+00  0.000E+00
 -1.641  0.000E+00  0.000E+00
 -1.631  0.000E+00  0.000E+00
 -1.621  0.000E+00  0.000E+00
 -1.611  0.000E+00  0.000E+00
 -1.601  0.000E+00  0.000E+00
 -1.591  0.000E+00  0.000E+00
 -1.581  0.000E+00  0.000E+00
 -1.571  0.000E+00  0.000E+00
 -1.561  0.000E+00  0.000E+00
 -1.551  0.000E+00  0.000E+00
 -1.541  0.000E+00  0.000E+00
 -1.531  0.000E+00  0.000E+00
 -1.521  0.000E+00  0.000E+00
 -1.511  0.000E+00  0.000E+00
 -1.501  0.000E+00  0.000E+00
 -1.491  0.000E+00  0.000E+00
 -1.481  0.000E+00  0.000E+00
 -1.471  0.000E+00  0.000E+00
 -1.461  0.000E+00  0.000E+00
 -1.451  0.000E+00  0.000E+00
 -1.441  0.000E+00  0.000E+00
 -1.431  0.000E+00  0.000E+00
 -1.421  0.000E+00  0.000E+00
 -1.411  0.000E+00  0.000E+00
 -1.401  0.000E+00  0.000E+00
 -1.391  0.000E+00  0.000E+00
 -1.381  0.000E+00  0.000E+00
 -1.371  0.000E+00  0.000E+00
 -1.361  0.000E+00  0.000E+00
 -1.351  0.000E+00  0.000E+00
 -1.341  0.000E+00  0.000E+00
 -1.331  0.000E+00  0.000E+00
 -1.321  0.000E+00  0.000E+00
 -1.311  0.000E+00  0.000E+00
 -1.301  0.000E+00  0.000E+00
 -1.291  0.000E+00  0.000E+00
 -1.281  0.000E+00  0.000E+00
 -1.271  0.000E+00  0.000E+00
 -1.261  0.000E+00  0.000E+00
 -1.251  0.000E+00  0.000E+00
 -1.241  0.000E+00  0.000E+00
 -1.231  0.000E+00  0.000E+00
 -1.221  0.000E+00  0.000E+00
 -1.211  0.000E+00  0.000E+00
 -1.201  0.000E+00  0.000E+00
 -1.191  0.000E+00  0.000E+00
 -1.181  0.000E+00  0.000E+00
 -1.171  0.000E+00  0.000E+00
 -1.161  0.000E+00  0.000E+00
 -1.151  0.000E+00  0.000E+00
 -1.141  0.000E+00  0.000E+00
 -1.131  0.000E+00  0.000E+00
 -1.121  0.000E+00  0.000E+00
 -1.111  0.000E+00  0.000E+00
 -1.101  0.000E+00  0.000E+00
 -1.091  0.000E+00  0.000E+00
 -1.081  0.000E+00  0.000E+00
 -1.071  0.000E+00  0.000E+00
 -1.061  0.000E+00  0.000E+00
 -1.051  0.000E+00  0.000E+00
 -1.041  0.000E+00  0.000E+00
 -1.031  0.000E+00  0.000E+00
 -1.021  0.000E+00  0.000E+00
 -1.011  0.000E+00  0.000E+00
 -1.001  0.000E+00  0.000E+00
 -0.991  0.000E+00  0.000E+00
 -0.981  0.000E+00  0.000E+00
 -0.971  0.000E+00  0.000E+00
 -0.961  0.000E+00  0.000E+00
 -0.951  0.000E+00  0.000E+00
 -0.941  0.000E+00  0.000E+00
 -0.931  0.000E+00  0.000E+00
 -0.921  0.000E+00  0.000E+00
 -0.911  0.000E+00  0.000E+00
 -0.901  0.000E+00  0.000E+00
 -0.891  0.000E+00  0.000E+00
 -0.881  0.000E+00  0.000E+00
 -0.871  0.000E+00  0.000E+00
 -0.861  0.000E+00  0.000E+00
 -0.851  0.000E+00  0.000E+00
 -0.841  0.000E+00  0.000E+00
 -0.831  0.000E+00  0.000E+00
 -0.821  0.000E+00  0.000E+00
 -0.811  0.000E+00  0.000E+00
 -0.801  0.000E+00  0.000E+00
 -0.791  0.000E+00  0.000E+00
 -0.781  0.000E+00  0.000E+00
 -0.771  0.000E+00  0.000E+00
 -0.761  0.000E+00  0.000E+00
 -0.751  0.000E+00  0.000E+00
 -0.741  0.000E+00  0.000E+00
 -0.731  0.000E+00  0.000E+00
 -0.721  0.000E+00  0.000E+00
 -0.711  0.000E+00  0.000E+00
 -0.701  0.000E+00  0.000E+00
 -0.691  0.000E+00  0.000E+00
 -0.681  0.000E+00  0.000E+00
 -0.671  0.000E+00  0.000E+00
 -0.661  0.000E+00  0.000E+00
 -0.651  0.000E+00  0.000E+00
 -0.641  0.000E+00  0.000E+00
 -0.631  0.000E+00  0.000E+00
 -0.621  0.000E+00  0.000E+00
 -0.611  0.000E+00  0.000E+00
 -0.601  0.000E+00  0.000E+00
 -0.591  0.000E+00  0.000E+00
 -0.581  0.000E+00  0.000E+00
 -0.571  0.000E+00  0.000E+00
 -0.561  0.000E+00  0.000E+00
 -0.551  0.000E+00  0.000E+00
 -0.541  0.000E+00  0.000E+00
 -0.531  0.000E+00  0.000E+00
 -0.521  0.000E+00  0.000E+00
 -0.511  0.000E+00  0.000E+00
 -0.501  0.000E+00  0.000E+00
 -0.491  0.000E+00  0.000E+00
 -0.481  0.000E+00  0.000E+00
 -0.471  0.000E+00  0.000E+00
 -0.461  0.000E+00  0.000E+00
 -0.451  0.000E+00  0.000E+00
 -0.441  0.000E+00  0.000E+00
 -0.431  0.000E+00  0.000E+00
 -0.421  0.000E+00  0.000E+00
 -0.411  0.000E+00  0.000E+00
 -0.401  0.000E+00  0.000E+00
 -0.391  0.000E+00  0.000E+00
 -0.381  0.000E+00  0.000E+00
 -0.371  0.000E+00  0.000E+00
 -0.361  0.000E+00  0.000E+00
 -0.351  0.000E+00  0.000E+00
 -0.341  0.000E+00  0.000E+00
 -0.331  0.000E+00  0.000E+00
 -0.321  0.000E+00  0.000E+00
 -0.311  0.000E+00  0.000E+00
 -0.301  0.000E+00  0.000E+00
 -0.291  0.000E+00  0.000E+00
 -0.281  0.000E+00  0.000E+00
 -0.271  0.000E+00  0.000E+00
 -0.261  0.000E+00  0.000E+00
 -0.251  0.000E+00  0.000E+00
 -0.241  0.000E+00  0.000E+00
 -0.231  0.000E+00  0.000E+00
 -0.221  0.000E+00  0.000E+00
 -0.211  0.000E+00  0.000E+00
 -0.201  0.000E+00  0.000E+00
 -0.191  0.000E+00  0.000E+00
 -0.181  0.000E+00  0.000E+00
 -0.171  0.000E+00  0.000E+00
 -0.161  0.000E+00  0.000E+00
 -0.151  0.000E+00  0.000E+00
 -0.141  0.000E+00  0.000E+00
 -0.131  0.000E+00  0.000E+00
 -0.121  0.000E+00  0.000E+00
 -0.111  0.000E+00  0.000E+00
 -0.101  0.000E+00  0.000E+00
 -0.091  0.000E+00  0.000E+00
 -0.081  0.000E+00  0.000E+00
 -0.071  0.000E+00  0.000E+00
 -0.061  0.000E+00  0.000E+00
 -0.051  0.000E+00  0.000E+00
 -0.041  0.000E+00  0.000E+00
 -0.031  0.000E+00  0.000E+00
 -0.021  0.000E+00  0.000E+00
 -0.011  0.000E+00  0.000E+00
 -0.001  0.000E+00  0.000E+00
  0.009  0.000E+00  0.000E+00
  0.019  0.000E+00  0.000E+00
  0.029  0.000E+00  0.000E+00
  0.039  0.000E+00  0.000E+00
  0.049  0.000E+00  0.000E+00
  0.059  0.000E+00  0.000E+00
  0.069  0.000E+00  0.000E+00
  0.079  0.000E+00  0.000E+00
  0.089  0.000E+00  0.000E+00
  0.099  0.000E+00  0.000E+00
  0.109  0.000E+00  0.000E+00
  0.119  0.000E+00  0.000E+00
  0.129  0.000E+00  0.000E+00
  0.139  0.000E+00  0.000E+00
  0.149  0.000E+00  0.000E+00
  0.159  0.000E+00  0.000E+00
  0.169  0.893E-26  0.893E-26
  0.179  0.556E-25  0.556E-25
  0.189  0.334E-17  0.334E-17
  0.199  0.450E-15  0.450E-15
  0.209  0.948E-15  0.948E-15
  0.219  0.305E-14  0.305E-14
  0.229  0.633E-14  0.633E-14
  0.239  0.142E-13  0.142E-13
  0.249  0.299E-13  0.299E-13
  0.259  0.638E-13  0.638E-13
  0.269  0.133E-12  0.133E-12
  0.279  0.266E-12  0.266E-12
  0.289  0.532E-12  0.532E-12
  0.299  0.104E-11  0.104E-11
  0.309  0.202E-11  0.202E-11
  0.319  0.386E-11  0.386E-11
  0.329  0.731E-11  0.731E-11
  0.339  0.137E-10  0.137E-10
  0.349  0.254E-10  0.254E-10
  0.359  0.467E-10  0.467E-10
  0.369  0.848E-10  0.848E-10
  0.379  0.153E-09  0.153E-09
  0.389  0.272E-09  0.272E-09
  0.399  0.480E-09  0.480E-09
  0.409  0.839E-09  0.839E-09
  0.419  0.145E-08  0.145E-08
  0.429  0.249E-08  0.249E-08
  0.439  0.422E-08  0.422E-08
  0.449  0.709E-08  0.709E-08
  0.459  0.118E-07  0.118E-07
  0.469  0.195E-07  0.195E-07
  0.479  0.318E-07  0.318E-07
  0.489  0.515E-07  0.515E-07
  0.499  0.825E-07  0.825E-07
  0.509  0.131E-06  0.131E-06
  0.519  0.206E-06  0.206E-06
  0.529  0.322E-06  0.322E-06
  0.539  0.497E-06  0.497E-06
  0.549  0.760E-06  0.760E-06
  0.559  0.115E-05  0.115E-05
  0.569  0.173E-05  0.173E-05
  0.579  0.259E-05  0.259E-05
  0.589  0.382E-05  0.382E-05
  0.599  0.559E-05  0.559E-05
  0.609  0.812E-05  0.812E-05
  0.619  0.117E-04  0.117E-04
  0.629  0.167E-04  0.167E-04
  0.639  0.236E-04  0.236E-04
  0.649  0.331E-04  0.331E-04
  0.659  0.460E-04  0.460E-04
  0.669  0.634E-04  0.634E-04
  0.679  0.868E-04  0.868E-04
  0.689  0.118E-03  0.118E-03
  0.699  0.158E-03  0.158E-03
  0.709  0.212E-03  0.212E-03
  0.719  0.280E-03  0.280E-03
  0.729  0.368E-03  0.368E-03
  0.739  0.480E-03  0.480E-03
  0.749  0.621E-03  0.621E-03
  0.759  0.798E-03  0.798E-03
  0.769  0.102E-02  0.102E-02
  0.779  0.129E-02  0.129E-02
  0.789  0.162E-02  0.162E-02
  0.799  0.201E-02  0.201E-02
  0.809  0.249E-02  0.249E-02
  0.819  0.306E-02  0.306E-02
  0.829  0.374E-02  0.374E-02
  0.839  0.453E-02  0.453E-02
  0.849  0.545E-02  0.545E-02
  0.859  0.651E-02  0.651E-02
  0.869  0.773E-02  0.773E-02
  0.879  0.911E-02  0.911E-02
  0.889  0.107E-01  0.107E-01
  0.899  0.124E-01  0.124E-01
  0.909  0.143E-01  0.143E-01
  0.919  0.165E-01  0.165E-01
  0.929  0.188E-01  0.188E-01
  0.939  0.213E-01  0.213E-01
  0.949  0.239E-01  0.239E-01
  0.959  0.268E-01  0.268E-01
  0.969  0.298E-01  0.298E-01
  0.979  0.329E-01  0.329E-01
  0.989  0.361E-01  0.361E-01
  0.999  0.394E-01  0.394E-01
  1.009  0.427E-01  0.427E-01
  1.019  0.460E-01  0.460E-01
  1.029  0.493E-01  0.493E-01
  1.039  0.525E-01  0.525E-01
  1.049  0.556E-01  0.556E-01
  1.059  0.585E-01  0.585E-01
  1.069  0.613E-01  0.613E-01
  1.079  0.639E-01  0.639E-01
  1.089  0.662E-01  0.662E-01
  1.099  0.684E-01  0.684E-01
  1.109  0.702E-01  0.702E-01
  1.119  0.718E-01  0.718E-01
  1.129  0.732E-01  0.732E-01
  1.139  0.743E-01  0.743E-01
  1.149  0.752E-01  0.752E-01
  1.159  0.759E-01  0.759E-01
  1.169  0.763E-01  0.763E-01
  1.179  0.766E-01  0.766E-01
  1.189  0.767E-01  0.767E-01
  1.199  0.767E-01  0.767E-01
  1.209  0.765E-01  0.765E-01
  1.219  0.763E-01  0.763E-01
  1.229  0.759E-01  0.759E-01
  1.239  0.755E-01  0.755E-01
  1.249  0.751E-01  0.751E-01
  1.259  0.746E-01  0.746E-01
  1.269  0.741E-01  0.741E-01
  1.279  0.736E-01  0.736E-01
  1.289  0.731E-01  0.731E-01
  1.299  0.726E-01  0.726E-01
  1.309  0.722E-01  0.722E-01
  1.319  0.717E-01  0.717E-01
  1.329  0.713E-01  0.713E-01
  1.339  0.709E-01  0.709E-01
  1.349  0.705E-01  0.705E-01
  1.359  0.702E-01  0.702E-01
  1.369  0.699E-01  0.699E-01
  1.379  0.696E-01  0.696E-01
  1.389  0.693E-01  0.693E-01
  1.399  0.691E-01  0.691E-01
  1.409  0.688E-01  0.688E-01
  1.419  0.686E-01  0.686E-01
  1.429  0.683E-01  0.683E-01
  1.439  0.680E-01  0.680E-01
  1.449  0.677E-01  0.677E-01
  1.459  0.675E-01  0.675E-01
  1.469  0.671E-01  0.671E-01
  1.479  0.668E-01  0.668E-01
  1.489  0.665E-01  0.665E-01
  1.499  0.662E-01  0.662E-01
  1.509  0.658E-01  0.658E-01
  1.519  0.655E-01  0.655E-01
  1.529  0.652E-01  0.652E-01
  1.539  0.649E-01  0.649E-01
  1.549  0.646E-01  0.646E-01
  1.559  0.643E-01  0.643E-01
  1.569  0.641E-01  0.641E-01
  1.579  0.639E-01  0.639E-01
  1.589  0.638E-01  0.638E-01
  1.599  0.636E-01  0.636E-01
  1.609  0.635E-01  0.635E-01
  1.619  0.634E-01  0.634E-01
  1.629  0.632E-01  0.632E-01
  1.639  0.631E-01  0.631E-01
  1.649  0.630E-01  0.630E-01
  1.659  0.628E-01  0.628E-01
  1.669  0.626E-01  0.626E-01
  1.679  0.624E-01  0.624E-01
  1.689  0.622E-01  0.622E-01
  1.699  0.619E-01  0.619E-01
  1.709  0.616E-01  0.616E-01
  1.719  0.613E-01  0.613E-01
  1.729  0.609E-01  0.609E-01
  1.739  0.606E-01  0.606E-01
  1.749  0.602E-01  0.602E-01
  1.759  0.598E-01  0.598E-01
  1.769  0.594E-01  0.594E-01
  1.779  0.591E-01  0.591E-01
  1.789  0.587E-01  0.587E-01
  1.799  0.584E-01  0.584E-01
  1.809  0.580E-01  0.580E-01
  1.819  0.578E-01  0.578E-01
  1.829  0.575E-01  0.575E-01
  1.839  0.573E-01  0.573E-01
  1.849  0.571E-01  0.571E-01
  1.859  0.569E-01  0.569E-01
  1.869  0.568E-01  0.568E-01
  1.879  0.567E-01  0.567E-01
  1.889  0.566E-01  0.566E-01
  1.899  0.566E-01  0.566E-01
  1.909  0.565E-01  0.565E-01
  1.919  0.565E-01  0.565E-01
  1.929  0.565E-01  0.565E-01
  1.939  0.564E-01  0.564E-01
  1.949  0.563E-01  0.563E-01
  1.959  0.562E-01  0.562E-01
  1.969  0.561E-01  0.561E-01
  1.979  0.558E-01  0.558E-01
  1.989  0.556E-01  0.556E-01
  1.999  0.553E-01  0.553E-01
  2.009  0.549E-01  0.549E-01
  2.019  0.545E-01  0.545E-01
  2.029  0.540E-01  0.540E-01
  2.039  0.535E-01  0.535E-01
  2.049  0.531E-01  0.531E-01
  2.059  0.526E-01  0.526E-01
  2.069  0.521E-01  0.521E-01
  2.079  0.516E-01  0.516E-01
  2.089  0.512E-01  0.512E-01
  2.099  0.508E-01  0.508E-01
  2.109  0.505E-01  0.505E-01
  2.119  0.502E-01  0.502E-01
  2.129  0.500E-01  0.500E-01
  2.139  0.498E-01  0.498E-01
  2.149  0.496E-01  0.496E-01
  2.159  0.495E-01  0.495E-01
  2.169  0.494E-01  0.494E-01
  2.179  0.493E-01  0.493E-01
  2.189  0.492E-01  0.492E-01
  2.199  0.491E-01  0.491E-01
  2.209  0.491E-01  0.491E-01
  2.219  0.490E-01  0.490E-01
  2.229  0.489E-01  0.489E-01
  2.239  0.489E-01  0.489E-01
  2.249  0.488E-01  0.488E-01
  2.259  0.487E-01  0.487E-01
  2.269  0.487E-01  0.487E-01
  2.279  0.486E-01  0.486E-01
  2.289  0.485E-01  0.485E-01
  2.299  0.484E-01  0.484E-01
  2.309  0.482E-01  0.482E-01
  2.319  0.481E-01  0.481E-01
  2.329  0.479E-01  0.479E-01
  2.339  0.477E-01  0.477E-01
  2.349  0.474E-01  0.474E-01
  2.359  0.471E-01  0.471E-01
  2.369  0.468E-01  0.468E-01
  2.379  0.464E-01  0.464E-01
  2.389  0.460E-01  0.460E-01
  2.399  0.455E-01  0.455E-01
  2.409  0.451E-01  0.451E-01
  2.419  0.445E-01  0.445E-01
  2.429  0.440E-01  0.440E-01
  2.439  0.435E-01  0.435E-01
  2.449  0.429E-01  0.429E-01
  2.459  0.424E-01  0.424E-01
  2.469  0.419E-01  0.419E-01
  2.479  0.415E-01  0.415E-01
  2.489  0.410E-01  0.410E-01
  2.499  0.407E-01  0.407E-01
  2.509  0.403E-01  0.403E-01
  2.519  0.401E-01  0.401E-01
  2.529  0.399E-01  0.399E-01
  2.539  0.398E-01  0.398E-01
  2.549  0.398E-01  0.398E-01
  2.559  0.398E-01  0.398E-01
  2.569  0.399E-01  0.399E-01
  2.579  0.401E-01  0.401E-01
  2.589  0.403E-01  0.403E-01
  2.599  0.405E-01  0.405E-01
  2.609  0.408E-01  0.408E-01
  2.619  0.411E-01  0.411E-01
  2.629  0.413E-01  0.413E-01
  2.639  0.415E-01  0.415E-01
  2.649  0.417E-01  0.417E-01
  2.659  0.418E-01  0.418E-01
  2.669  0.418E-01  0.418E-01
  2.679  0.418E-01  0.418E-01
  2.689  0.416E-01  0.416E-01
  2.699  0.413E-01  0.413E-01
  2.709  0.410E-01  0.410E-01
  2.719  0.405E-01  0.405E-01
  2.729  0.400E-01  0.400E-01
  2.739  0.394E-01  0.394E-01
  2.749  0.387E-01  0.387E-01
  2.759  0.380E-01  0.380E-01
  2.769  0.373E-01  0.373E-01
  2.779  0.366E-01  0.366E-01
  2.789  0.360E-01  0.360E-01
  2.799  0.353E-01  0.353E-01
  2.809  0.348E-01  0.348E-01
  2.819  0.342E-01  0.342E-01
  2.829  0.338E-01  0.338E-01
  2.839  0.334E-01  0.334E-01
  2.849  0.331E-01  0.331E-01
  2.859  0.328E-01  0.328E-01
  2.869  0.326E-01  0.326E-01
  2.879  0.324E-01  0.324E-01
  2.889  0.323E-01  0.323E-01
  2.899  0.322E-01  0.322E-01
  2.909  0.322E-01  0.322E-01
  2.919  0.321E-01  0.321E-01
  2.929  0.321E-01  0.321E-01
  2.939  0.321E-01  0.321E-01
  2.949  0.322E-01  0.322E-01
  2.959  0.322E-01  0.322E-01
  2.969  0.323E-01  0.323E-01
  2.979  0.324E-01  0.324E-01
  2.989  0.325E-01  0.325E-01
  2.999  0.326E-01  0.326E-01
  3.009  0.328E-01  0.328E-01
  3.019  0.329E-01  0.329E-01
  3.029  0.331E-01  0.331E-01
  3.039  0.333E-01  0.333E-01
  3.049  0.334E-01  0.334E-01
  3.059  0.336E-01  0.336E-01
  3.069  0.337E-01  0.337E-01
  3.079  0.337E-01  0.337E-01
  3.089  0.337E-01  0.337E-01
  3.099  0.336E-01  0.336E-01
  3.109  0.334E-01  0.334E-01
  3.119  0.332E-01  0.332E-01
  3.129  0.329E-01  0.329E-01
  3.139  0.325E-01  0.325E-01
  3.149  0.321E-01  0.321E-01
  3.159  0.316E-01  0.316E-01
  3.169  0.310E-01  0.310E-01
  3.179  0.304E-01  0.304E-01
  3.189  0.298E-01  0.298E-01
  3.199  0.292E-01  0.292E-01
  3.209  0.286E-01  0.286E-01
  3.219  0.281E-01  0.281E-01
  3.229  0.276E-01  0.276E-01
  3.239  0.271E-01  0.271E-01
  3.249  0.267E-01  0.267E-01
  3.259  0.264E-01  0.264E-01
  3.269  0.262E-01  0.262E-01
  3.279  0.261E-01  0.261E-01
  3.289  0.261E-01  0.261E-01
  3.299  0.261E-01  0.261E-01
  3.309  0.263E-01  0.263E-01
  3.319  0.265E-01  0.265E-01
  3.329  0.269E-01  0.269E-01
  3.339  0.272E-01  0.272E-01
  3.349  0.277E-01  0.277E-01
  3.359  0.281E-01  0.281E-01
  3.369  0.286E-01  0.286E-01
  3.379  0.292E-01  0.292E-01
  3.389  0.297E-01  0.297E-01
  3.399  0.302E-01  0.302E-01
  3.409  0.307E-01  0.307E-01
  3.419  0.312E-01  0.312E-01
  3.429  0.316E-01  0.316E-01
  3.439  0.321E-01  0.321E-01
  3.449  0.325E-01  0.325E-01
  3.459  0.328E-01  0.328E-01
  3.469  0.331E-01  0.331E-01
  3.479  0.334E-01  0.334E-01
  3.489  0.337E-01  0.337E-01
  3.499  0.339E-01  0.339E-01
  3.509  0.341E-01  0.341E-01
  3.519  0.343E-01  0.343E-01
  3.529  0.345E-01  0.345E-01
  3.539  0.346E-01  0.346E-01
  3.549  0.347E-01  0.347E-01
  3.559  0.347E-01  0.347E-01
  3.569  0.347E-01  0.347E-01
  3.579  0.347E-01  0.347E-01
  3.589  0.346E-01  0.346E-01
  3.599  0.345E-01  0.345E-01
  3.609  0.343E-01  0.343E-01
  3.619  0.341E-01  0.341E-01
  3.629  0.339E-01  0.339E-01
  3.639  0.336E-01  0.336E-01
  3.649  0.333E-01  0.333E-01
  3.659  0.330E-01  0.330E-01
  3.669  0.327E-01  0.327E-01
  3.679  0.323E-01  0.323E-01
  3.689  0.319E-01  0.319E-01
  3.699  0.315E-01  0.315E-01
  3.709  0.312E-01  0.312E-01
  3.719  0.308E-01  0.308E-01
  3.729  0.305E-01  0.305E-01
  3.739  0.302E-01  0.302E-01
  3.749  0.299E-01  0.299E-01
  3.759  0.297E-01  0.297E-01
  3.769  0.295E-01  0.295E-01
  3.779  0.294E-01  0.294E-01
  3.789  0.294E-01  0.294E-01
  3.799  0.294E-01  0.294E-01
  3.809  0.295E-01  0.295E-01
  3.819  0.296E-01  0.296E-01
  3.829  0.299E-01  0.299E-01
  3.839  0.302E-01  0.302E-01
  3.849  0.305E-01  0.305E-01
  3.859  0.309E-01  0.309E-01
  3.869  0.314E-01  0.314E-01
  3.879  0.319E-01  0.319E-01
  3.889  0.324E-01  0.324E-01
  3.899  0.329E-01  0.329E-01
  3.909  0.333E-01  0.333E-01
  3.919  0.338E-01  0.338E-01
  3.929  0.342E-01  0.342E-01
  3.939  0.346E-01  0.346E-01
  3.949  0.348E-01  0.348E-01
  3.959  0.351E-01  0.351E-01
  3.969  0.352E-01  0.352E-01
  3.979  0.352E-01  0.352E-01
  3.989  0.351E-01  0.351E-01
  3.999  0.350E-01  0.350E-01
  4.009  0.347E-01  0.347E-01
  4.019  0.344E-01  0.344E-01
  4.029  0.340E-01  0.340E-01
  4.039  0.335E-01  0.335E-01
  4.049  0.330E-01  0.330E-01
  4.059  0.324E-01  0.324E-01
  4.069  0.319E-01  0.319E-01
  4.079  0.312E-01  0.312E-01
  4.089  0.306E-01  0.306E-01
  4.099  0.301E-01  0.301E-01
  4.109  0.295E-01  0.295E-01
  4.119  0.290E-01  0.290E-01
  4.129  0.285E-01  0.285E-01
  4.139  0.281E-01  0.281E-01
  4.149  0.277E-01  0.277E-01
  4.159  0.274E-01  0.274E-01
  4.169  0.272E-01  0.272E-01
  4.179  0.270E-01  0.270E-01
  4.189  0.268E-01  0.268E-01
  4.199  0.267E-01  0.267E-01
  4.209  0.267E-01  0.267E-01
  4.219  0.267E-01  0.267E-01
  4.229  0.267E-01  0.267E-01
  4.239  0.267E-01  0.267E-01
  4.249  0.268E-01  0.268E-01
  4.259  0.268E-01  0.268E-01
  4.269  0.268E-01  0.268E-01
  4.279  0.269E-01  0.269E-01
  4.289  0.270E-01  0.270E-01
  4.299  0.270E-01  0.270E-01
  4.309  0.270E-01  0.270E-01
  4.319  0.271E-01  0.271E-01
  4.329  0.271E-01  0.271E-01
  4.339  0.272E-01  0.272E-01
  4.349  0.273E-01  0.273E-01
  4.359  0.273E-01  0.273E-01
  4.369  0.274E-01  0.274E-01
  4.379  0.275E-01  0.275E-01
  4.389  0.276E-01  0.276E-01
  4.399  0.276E-01  0.276E-01
  4.409  0.277E-01  0.277E-01
  4.419  0.278E-01  0.278E-01
  4.429  0.278E-01  0.278E-01
  4.439  0.279E-01  0.279E-01
  4.449  0.279E-01  0.279E-01
  4.459  0.278E-01  0.278E-01
  4.469  0.277E-01  0.277E-01
  4.479  0.276E-01  0.276E-01
  4.489  0.274E-01  0.274E-01
  4.499  0.272E-01  0.272E-01
  4.509  0.269E-01  0.269E-01
  4.519  0.266E-01  0.266E-01
  4.529  0.263E-01  0.263E-01
  4.539  0.259E-01  0.259E-01
  4.549  0.254E-01  0.254E-01
  4.559  0.250E-01  0.250E-01
  4.569  0.246E-01  0.246E-01
  4.579  0.241E-01  0.241E-01
  4.589  0.236E-01  0.236E-01
  4.599  0.232E-01  0.232E-01
  4.609  0.228E-01  0.228E-01
  4.619  0.224E-01  0.224E-01
  4.629  0.220E-01  0.220E-01
  4.639  0.217E-01  0.217E-01
  4.649  0.214E-01  0.214E-01
  4.659  0.211E-01  0.211E-01
  4.669  0.209E-01  0.209E-01
  4.679  0.207E-01  0.207E-01
  4.689  0.205E-01  0.205E-01
  4.699  0.204E-01  0.204E-01
  4.709  0.203E-01  0.203E-01
  4.719  0.201E-01  0.201E-01
  4.729  0.201E-01  0.201E-01
  4.739  0.200E-01  0.200E-01
  4.749  0.199E-01  0.199E-01
  4.759  0.199E-01  0.199E-01
  4.769  0.198E-01  0.198E-01
  4.779  0.198E-01  0.198E-01
  4.789  0.197E-01  0.197E-01
  4.799  0.197E-01  0.197E-01
  4.809  0.196E-01  0.196E-01
  4.819  0.196E-01  0.196E-01
  4.829  0.195E-01  0.195E-01
  4.839  0.194E-01  0.194E-01
  4.849  0.193E-01  0.193E-01
  4.859  0.192E-01  0.192E-01
  4.869  0.191E-01  0.191E-01
  4.879  0.190E-01  0.190E-01
  4.889  0.189E-01  0.189E-01
  4.899  0.188E-01  0.188E-01
  4.909  0.187E-01  0.187E-01
  4.919  0.187E-01  0.187E-01
  4.929  0.186E-01  0.186E-01
  4.939  0.185E-01  0.185E-01
  4.949  0.185E-01  0.185E-01
  4.959  0.185E-01  0.185E-01
  4.969  0.185E-01  0.185E-01
  4.979  0.185E-01  0.185E-01
  4.989  0.184E-01  0.184E-01
  4.999  0.184E-01  0.184E-01
  5.009  0.184E-01  0.184E-01
  5.019  0.183E-01  0.183E-01
  5.029  0.182E-01  0.182E-01
  5.039  0.181E-01  0.181E-01
  5.049  0.179E-01  0.179E-01
  5.059  0.177E-01  0.177E-01
  5.069  0.174E-01  0.174E-01
  5.079  0.171E-01  0.171E-01
  5.089  0.167E-01  0.167E-01
  5.099  0.163E-01  0.163E-01
  5.109  0.159E-01  0.159E-01
  5.119  0.154E-01  0.154E-01
  5.129  0.149E-01  0.149E-01
  5.139  0.144E-01  0.144E-01
  5.149  0.140E-01  0.140E-01
  5.159  0.135E-01  0.135E-01
  5.169  0.130E-01  0.130E-01
  5.179  0.126E-01  0.126E-01
  5.189  0.122E-01  0.122E-01
  5.199  0.119E-01  0.119E-01
  5.209  0.116E-01  0.116E-01
  5.219  0.113E-01  0.113E-01
  5.229  0.111E-01  0.111E-01
  5.239  0.109E-01  0.109E-01
  5.249  0.107E-01  0.107E-01
  5.259  0.106E-01  0.106E-01
  5.269  0.105E-01  0.105E-01
  5.279  0.105E-01  0.105E-01
  5.289  0.105E-01  0.105E-01
  5.299  0.105E-01  0.105E-01
  5.309  0.105E-01  0.105E-01
  5.319  0.105E-01  0.105E-01
  5.329  0.105E-01  0.105E-01
  5.339  0.105E-01  0.105E-01
  5.349  0.106E-01  0.106E-01
  5.359  0.106E-01  0.106E-01
  5.369  0.106E-01  0.106E-01
  5.379  0.106E-01  0.106E-01
  5.389  0.106E-01  0.106E-01
  5.399  0.106E-01  0.106E-01
  5.409  0.105E-01  0.105E-01
  5.419  0.105E-01  0.105E-01
  5.429  0.104E-01  0.104E-01
  5.439  0.103E-01  0.103E-01
  5.449  0.102E-01  0.102E-01
  5.459  0.100E-01  0.100E-01
  5.469  0.987E-02  0.987E-02
  5.479  0.969E-02  0.969E-02
  5.489  0.949E-02  0.949E-02
  5.499  0.928E-02  0.928E-02
  5.509  0.906E-02  0.906E-02
  5.519  0.883E-02  0.883E-02
  5.529  0.859E-02  0.859E-02
  5.539  0.835E-02  0.835E-02
  5.549  0.810E-02  0.810E-02
  5.559  0.785E-02  0.785E-02
  5.569  0.760E-02  0.760E-02
  5.579  0.735E-02  0.735E-02
  5.589  0.709E-02  0.709E-02
  5.599  0.684E-02  0.684E-02
  5.609  0.659E-02  0.659E-02
  5.619  0.635E-02  0.635E-02
  5.629  0.610E-02  0.610E-02
  5.639  0.586E-02  0.586E-02
  5.649  0.562E-02  0.562E-02
  5.659  0.539E-02  0.539E-02
  5.669  0.516E-02  0.516E-02
  5.679  0.495E-02  0.495E-02
  5.689  0.474E-02  0.474E-02
  5.699  0.454E-02  0.454E-02
  5.709  0.436E-02  0.436E-02
  5.719  0.419E-02  0.419E-02
  5.729  0.404E-02  0.404E-02
  5.739  0.390E-02  0.390E-02
  5.749  0.377E-02  0.377E-02
  5.759  0.367E-02  0.367E-02
  5.769  0.358E-02  0.358E-02
  5.779  0.350E-02  0.350E-02
  5.789  0.344E-02  0.344E-02
  5.799  0.340E-02  0.340E-02
  5.809  0.337E-02  0.337E-02
  5.819  0.335E-02  0.335E-02
  5.829  0.334E-02  0.334E-02
  5.839  0.334E-02  0.334E-02
  5.849  0.334E-02  0.334E-02
  5.859  0.335E-02  0.335E-02
  5.869  0.336E-02  0.336E-02
  5.879  0.337E-02  0.337E-02
  5.889  0.337E-02  0.337E-02
  5.899  0.337E-02  0.337E-02
  5.909  0.335E-02  0.335E-02
  5.919  0.333E-02  0.333E-02
  5.929  0.330E-02  0.330E-02
  5.939  0.325E-02  0.325E-02
  5.949  0.320E-02  0.320E-02
  5.959  0.312E-02  0.312E-02
  5.969  0.304E-02  0.304E-02
  5.979  0.294E-02  0.294E-02
  5.989  0.284E-02  0.284E-02
  5.999  0.272E-02  0.272E-02
  6.009  0.259E-02  0.259E-02
  6.019  0.246E-02  0.246E-02
  6.029  0.233E-02  0.233E-02
  6.039  0.219E-02  0.219E-02
  6.049  0.205E-02  0.205E-02
  6.059  0.192E-02  0.192E-02
  6.069  0.179E-02  0.179E-02
  6.079  0.166E-02  0.166E-02
  6.089  0.154E-02  0.154E-02
  6.099  0.143E-02  0.143E-02
  6.109  0.132E-02  0.132E-02
  6.119  0.122E-02  0.122E-02
  6.129  0.113E-02  0.113E-02
  6.139  0.105E-02  0.105E-02
  6.149  0.970E-03  0.970E-03
  6.159  0.899E-03  0.899E-03
  6.169  0.834E-03  0.834E-03
  6.179  0.774E-03  0.774E-03
  6.189  0.718E-03  0.718E-03
  6.199  0.666E-03  0.666E-03
  6.209  0.617E-03  0.617E-03
  6.219  0.572E-03  0.572E-03
  6.229  0.528E-03  0.528E-03
  6.239  0.487E-03  0.487E-03
  6.249  0.448E-03  0.448E-03
  6.259  0.411E-03  0.411E-03
  6.269  0.375E-03  0.375E-03
  6.279  0.341E-03  0.341E-03
  6.289  0.308E-03  0.308E-03
  6.299  0.277E-03  0.277E-03
  6.309  0.248E-03  0.248E-03
  6.319  0.221E-03  0.221E-03
  6.329  0.195E-03  0.195E-03
  6.339  0.171E-03  0.171E-03
  6.349  0.149E-03  0.149E-03
  6.359  0.129E-03  0.129E-03
  6.369  0.111E-03  0.111E-03
  6.379  0.944E-04  0.944E-04
  6.389  0.798E-04  0.798E-04
  6.399  0.670E-04  0.670E-04
  6.409  0.557E-04  0.557E-04
  6.419  0.460E-04  0.460E-04
  6.429  0.376E-04  0.376E-04
  6.439  0.306E-04  0.306E-04
  6.449  0.246E-04  0.246E-04
  6.459  0.197E-04  0.197E-04
  6.469  0.157E-04  0.157E-04
  6.479  0.124E-04  0.124E-04
  6.489  0.986E-05  0.986E-05
  6.499  0.791E-05  0.791E-05
  6.509  0.649E-05  0.649E-05
  6.519  0.556E-05  0.556E-05
  6.529  0.507E-05  0.507E-05
  6.539  0.502E-05  0.502E-05
  6.549  0.541E-05  0.541E-05
  6.559  0.627E-05  0.627E-05
  6.569  0.764E-05  0.764E-05
  6.579  0.957E-05  0.957E-05
  6.589  0.122E-04  0.122E-04
  6.599  0.155E-04  0.155E-04
  6.609  0.197E-04  0.197E-04
  6.619  0.248E-04  0.248E-04
  6.629  0.311E-04  0.311E-04
  6.639  0.385E-04  0.385E-04
  6.649  0.472E-04  0.472E-04
  6.659  0.573E-04  0.573E-04
  6.669  0.688E-04  0.688E-04
  6.679  0.818E-04  0.818E-04
  6.689  0.961E-04  0.961E-04
  6.699  0.112E-03  0.112E-03
  6.709  0.129E-03  0.129E-03
  6.719  0.146E-03  0.146E-03
  6.729  0.165E-03  0.165E-03
  6.739  0.184E-03  0.184E-03
  6.749  0.202E-03  0.202E-03
  6.759  0.220E-03  0.220E-03
  6.769  0.238E-03  0.238E-03
  6.779  0.254E-03  0.254E-03
  6.789  0.268E-03  0.268E-03
  6.799  0.280E-03  0.280E-03
  6.809  0.289E-03  0.289E-03
  6.819  0.295E-03  0.295E-03
  6.829  0.299E-03  0.299E-03
  6.839  0.299E-03  0.299E-03
  6.849  0.296E-03  0.296E-03
  6.859  0.291E-03  0.291E-03
  6.869  0.283E-03  0.283E-03
  6.879  0.273E-03  0.273E-03
  6.889  0.261E-03  0.261E-03
  6.899  0.249E-03  0.249E-03
  6.909  0.236E-03  0.236E-03
  6.919  0.224E-03  0.224E-03
  6.929  0.213E-03  0.213E-03
  6.939  0.205E-03  0.205E-03
  6.949  0.200E-03  0.200E-03
  6.959  0.199E-03  0.199E-03
  6.969  0.203E-03  0.203E-03
  6.979  0.214E-03  0.214E-03
  6.989  0.231E-03  0.231E-03
  6.999  0.256E-03  0.256E-03
  7.009  0.290E-03  0.290E-03
  7.019  0.334E-03  0.334E-03
  7.029  0.388E-03  0.388E-03
  7.039  0.452E-03  0.452E-03
  7.049  0.527E-03  0.527E-03
  7.059  0.612E-03  0.612E-03
  7.069  0.708E-03  0.708E-03
  7.079  0.813E-03  0.813E-03
  7.089  0.928E-03  0.928E-03
  7.099  0.105E-02  0.105E-02
  7.109  0.118E-02  0.118E-02
  7.119  0.131E-02  0.131E-02
  7.129  0.144E-02  0.144E-02
  7.139  0.158E-02  0.158E-02
  7.149  0.171E-02  0.171E-02
  7.159  0.184E-02  0.184E-02
  7.169  0.196E-02  0.196E-02
  7.179  0.206E-02  0.206E-02
  7.189  0.216E-02  0.216E-02
  7.199  0.225E-02  0.225E-02
  7.209  0.232E-02  0.232E-02
  7.219  0.237E-02  0.237E-02
  7.229  0.241E-02  0.241E-02
  7.239  0.244E-02  0.244E-02
  7.249  0.245E-02  0.245E-02
  7.259  0.244E-02  0.244E-02
  7.269  0.243E-02  0.243E-02
  7.279  0.240E-02  0.240E-02
  7.289  0.237E-02  0.237E-02
  7.299  0.233E-02  0.233E-02
  7.309  0.229E-02  0.229E-02
  7.319  0.225E-02  0.225E-02
  7.329  0.222E-02  0.222E-02
  7.339  0.219E-02  0.219E-02
  7.349  0.217E-02  0.217E-02
  7.359  0.217E-02  0.217E-02
  7.369  0.218E-02  0.218E-02
  7.379  0.220E-02  0.220E-02
  7.389  0.225E-02  0.225E-02
  7.399  0.232E-02  0.232E-02
  7.409  0.240E-02  0.240E-02
  7.419  0.251E-02  0.251E-02
  7.429  0.264E-02  0.264E-02
  7.439  0.278E-02  0.278E-02
  7.449  0.295E-02  0.295E-02
  7.459  0.313E-02  0.313E-02
  7.469  0.334E-02  0.334E-02
  7.479  0.355E-02  0.355E-02
  7.489  0.378E-02  0.378E-02
  7.499  0.402E-02  0.402E-02
  7.509  0.428E-02  0.428E-02
  7.519  0.454E-02  0.454E-02
  7.529  0.481E-02  0.481E-02
  7.539  0.509E-02  0.509E-02
  7.549  0.537E-02  0.537E-02
  7.559  0.565E-02  0.565E-02
  7.569  0.593E-02  0.593E-02
  7.579  0.621E-02  0.621E-02
  7.589  0.649E-02  0.649E-02
  7.599  0.676E-02  0.676E-02
  7.609  0.703E-02  0.703E-02
  7.619  0.730E-02  0.730E-02
  7.629  0.756E-02  0.756E-02
  7.639  0.782E-02  0.782E-02
  7.649  0.809E-02  0.809E-02
  7.659  0.837E-02  0.837E-02
  7.669  0.866E-02  0.866E-02
  7.679  0.899E-02  0.899E-02
  7.689  0.935E-02  0.935E-02
  7.699  0.976E-02  0.976E-02
  7.709  0.102E-01  0.102E-01
  7.719  0.108E-01  0.108E-01
  7.729  0.114E-01  0.114E-01
  7.739  0.122E-01  0.122E-01
  7.749  0.130E-01  0.130E-01
  7.759  0.140E-01  0.140E-01
  7.769  0.151E-01  0.151E-01
  7.779  0.164E-01  0.164E-01
  7.789  0.178E-01  0.178E-01
  7.799  0.193E-01  0.193E-01
  7.809  0.210E-01  0.210E-01
  7.819  0.228E-01  0.228E-01
  7.829  0.248E-01  0.248E-01
  7.839  0.268E-01  0.268E-01
  7.849  0.290E-01  0.290E-01
  7.859  0.312E-01  0.312E-01
  7.869  0.334E-01  0.334E-01
  7.879  0.357E-01  0.357E-01
  7.889  0.380E-01  0.380E-01
  7.899  0.402E-01  0.402E-01
  7.909  0.423E-01  0.423E-01
  7.919  0.444E-01  0.444E-01
  7.929  0.463E-01  0.463E-01
  7.939  0.481E-01  0.481E-01
  7.949  0.498E-01  0.498E-01
  7.959  0.513E-01  0.513E-01
  7.969  0.526E-01  0.526E-01
  7.979  0.538E-01  0.538E-01
  7.989  0.549E-01  0.549E-01
  7.999  0.559E-01  0.559E-01
  8.009  0.568E-01  0.568E-01
  8.019  0.577E-01  0.577E-01
  8.029  0.586E-01  0.586E-01
  8.039  0.595E-01  0.595E-01
  8.049  0.605E-01  0.605E-01
  8.059  0.616E-01  0.616E-01
  8.069  0.628E-01  0.628E-01
  8.079  0.642E-01  0.642E-01
  8.089  0.657E-01  0.657E-01
  8.099  0.673E-01  0.673E-01
  8.109  0.691E-01  0.691E-01
  8.119  0.711E-01  0.711E-01
  8.129  0.731E-01  0.731E-01
  8.139  0.753E-01  0.753E-01
  8.149  0.776E-01  0.776E-01
  8.159  0.799E-01  0.799E-01
  8.169  0.822E-01  0.822E-01
  8.179  0.846E-01  0.846E-01
  8.189  0.869E-01  0.869E-01
  8.199  0.892E-01  0.892E-01
  8.209  0.913E-01  0.913E-01
  8.219  0.934E-01  0.934E-01
  8.229  0.955E-01  0.955E-01
  8.239  0.974E-01  0.974E-01
  8.249  0.992E-01  0.992E-01
  8.259  0.101E+00  0.101E+00
  8.269  0.103E+00  0.103E+00
  8.279  0.104E+00  0.104E+00
  8.289  0.106E+00  0.106E+00
  8.299  0.107E+00  0.107E+00
  8.309  0.109E+00  0.109E+00
  8.319  0.110E+00  0.110E+00
  8.329  0.112E+00  0.112E+00
  8.339  0.113E+00  0.113E+00
  8.349  0.114E+00  0.114E+00
  8.359  0.116E+00  0.116E+00
  8.369  0.117E+00  0.117E+00
  8.379  0.118E+00  0.118E+00
  8.389  0.119E+00  0.119E+00
  8.399  0.120E+00  0.120E+00
  8.409  0.122E+00  0.122E+00
  8.419  0.123E+00  0.123E+00
  8.429  0.124E+00  0.124E+00
  8.439  0.125E+00  0.125E+00
  8.449  0.126E+00  0.126E+00
  8.459  0.128E+00  0.128E+00
  8.469  0.129E+00  0.129E+00
  8.479  0.130E+00  0.130E+00
  8.489  0.132E+00  0.132E+00
  8.499  0.133E+00  0.133E+00
  8.509  0.135E+00  0.135E+00
  8.519  0.137E+00  0.137E+00
  8.529  0.139E+00  0.139E+00
  8.539  0.141E+00  0.141E+00
  8.549  0.143E+00  0.143E+00
  8.559  0.145E+00  0.145E+00
  8.569  0.147E+00  0.147E+00
  8.579  0.150E+00  0.150E+00
  8.589  0.152E+00  0.152E+00
  8.599  0.155E+00  0.155E+00
  8.609  0.157E+00  0.157E+00
  8.619  0.159E+00  0.159E+00
  8.629  0.162E+00  0.162E+00
  8.639  0.164E+00  0.164E+00
  8.649  0.166E+00  0.166E+00
  8.659  0.168E+00  0.168E+00
  8.669  0.170E+00  0.170E+00
  8.679  0.171E+00  0.171E+00
  8.689  0.172E+00  0.172E+00
  8.699  0.173E+00  0.173E+00
  8.709  0.174E+00  0.174E+00
  8.719  0.175E+00  0.175E+00
  8.729  0.175E+00  0.175E+00
  8.739  0.176E+00  0.176E+00
  8.749  0.176E+00  0.176E+00
  8.759  0.176E+00  0.176E+00
  8.769  0.176E+00  0.176E+00
  8.779  0.177E+00  0.177E+00
  8.789  0.177E+00  0.177E+00
  8.799  0.178E+00  0.178E+00
  8.809  0.179E+00  0.179E+00
  8.819  0.180E+00  0.180E+00
  8.829  0.182E+00  0.182E+00
  8.839  0.185E+00  0.185E+00
  8.849  0.187E+00  0.187E+00
  8.859  0.191E+00  0.191E+00
  8.869  0.194E+00  0.194E+00
  8.879  0.198E+00  0.198E+00
  8.889  0.203E+00  0.203E+00
  8.899  0.207E+00  0.207E+00
  8.909  0.212E+00  0.212E+00
  8.919  0.217E+00  0.217E+00
  8.929  0.221E+00  0.221E+00
  8.939  0.226E+00  0.226E+00
  8.949  0.230E+00  0.230E+00
  8.959  0.233E+00  0.233E+00
  8.969  0.236E+00  0.236E+00
  8.979  0.239E+00  0.239E+00
  8.989  0.241E+00  0.241E+00
  8.999  0.242E+00  0.242E+00
  9.009  0.242E+00  0.242E+00
  9.019  0.242E+00  0.242E+00
  9.029  0.241E+00  0.241E+00
  9.039  0.239E+00  0.239E+00
  9.049  0.237E+00  0.237E+00
  9.059  0.234E+00  0.234E+00
  9.069  0.230E+00  0.230E+00
  9.079  0.226E+00  0.226E+00
  9.089  0.222E+00  0.222E+00
  9.099  0.218E+00  0.218E+00
  9.109  0.213E+00  0.213E+00
  9.119  0.209E+00  0.209E+00
  9.129  0.205E+00  0.205E+00
  9.139  0.201E+00  0.201E+00
  9.149  0.197E+00  0.197E+00
  9.159  0.193E+00  0.193E+00
  9.169  0.190E+00  0.190E+00
  9.179  0.188E+00  0.188E+00
  9.189  0.185E+00  0.185E+00
  9.199  0.183E+00  0.183E+00
  9.209  0.182E+00  0.182E+00
  9.219  0.180E+00  0.180E+00
  9.229  0.179E+00  0.179E+00
  9.239  0.178E+00  0.178E+00
  9.249  0.177E+00  0.177E+00
  9.259  0.176E+00  0.176E+00
  9.269  0.175E+00  0.175E+00
  9.279  0.174E+00  0.174E+00
  9.289  0.172E+00  0.172E+00
  9.299  0.171E+00  0.171E+00
  9.309  0.169E+00  0.169E+00
  9.319  0.167E+00  0.167E+00
  9.329  0.164E+00  0.164E+00
  9.339  0.162E+00  0.162E+00
  9.349  0.159E+00  0.159E+00
  9.359  0.156E+00  0.156E+00
  9.369  0.153E+00  0.153E+00
  9.379  0.150E+00  0.150E+00
  9.389  0.147E+00  0.147E+00
  9.399  0.144E+00  0.144E+00
  9.409  0.141E+00  0.141E+00
  9.419  0.138E+00  0.138E+00
  9.429  0.136E+00  0.136E+00
  9.439  0.133E+00  0.133E+00
  9.449  0.131E+00  0.131E+00
  9.459  0.129E+00  0.129E+00
  9.469  0.127E+00  0.127E+00
  9.479  0.126E+00  0.126E+00
  9.489  0.124E+00  0.124E+00
  9.499  0.123E+00  0.123E+00
  9.509  0.121E+00  0.121E+00
  9.519  0.120E+00  0.120E+00
  9.529  0.119E+00  0.119E+00
  9.539  0.117E+00  0.117E+00
  9.549  0.116E+00  0.116E+00
  9.559  0.114E+00  0.114E+00
  9.569  0.113E+00  0.113E+00
  9.579  0.111E+00  0.111E+00
  9.589  0.109E+00  0.109E+00
  9.599  0.107E+00  0.107E+00
  9.609  0.105E+00  0.105E+00
  9.619  0.103E+00  0.103E+00
  9.629  0.101E+00  0.101E+00
  9.639  0.985E-01  0.985E-01
  9.649  0.964E-01  0.964E-01
  9.659  0.943E-01  0.943E-01
  9.669  0.923E-01  0.923E-01
  9.679  0.903E-01  0.903E-01
  9.689  0.885E-01  0.885E-01
  9.699  0.867E-01  0.867E-01
  9.709  0.851E-01  0.851E-01
  9.719  0.836E-01  0.836E-01
  9.729  0.821E-01  0.821E-01
  9.739  0.808E-01  0.808E-01
  9.749  0.795E-01  0.795E-01
  9.759  0.783E-01  0.783E-01
  9.769  0.771E-01  0.771E-01
  9.779  0.759E-01  0.759E-01
  9.789  0.748E-01  0.748E-01
  9.799  0.736E-01  0.736E-01
  9.809  0.725E-01  0.725E-01
  9.819  0.713E-01  0.713E-01
  9.829  0.702E-01  0.702E-01
  9.839  0.690E-01  0.690E-01
  9.849  0.678E-01  0.678E-01
  9.859  0.667E-01  0.667E-01
  9.869  0.655E-01  0.655E-01
  9.879  0.644E-01  0.644E-01
  9.889  0.634E-01  0.634E-01
  9.899  0.624E-01  0.624E-01
  9.909  0.614E-01  0.614E-01
  9.919  0.606E-01  0.606E-01
  9.929  0.598E-01  0.598E-01
  9.939  0.592E-01  0.592E-01
  9.949  0.586E-01  0.586E-01
  9.959  0.582E-01  0.582E-01
  9.969  0.580E-01  0.580E-01
  9.979  0.578E-01  0.578E-01
  9.989  0.578E-01  0.578E-01
  9.999  0.579E-01  0.579E-01
 10.009  0.581E-01  0.581E-01
 10.019  0.584E-01  0.584E-01
 10.029  0.587E-01  0.587E-01
 10.039  0.591E-01  0.591E-01
 10.049  0.595E-01  0.595E-01
 10.059  0.599E-01  0.599E-01
 10.069  0.603E-01  0.603E-01
 10.079  0.605E-01  0.605E-01
 10.089  0.607E-01  0.607E-01
 10.099  0.608E-01  0.608E-01
 10.109  0.607E-01  0.607E-01
 10.119  0.604E-01  0.604E-01
 10.129  0.600E-01  0.600E-01
 10.139  0.594E-01  0.594E-01
 10.149  0.586E-01  0.586E-01
 10.159  0.576E-01  0.576E-01
 10.169  0.564E-01  0.564E-01
 10.179  0.551E-01  0.551E-01
 10.189  0.536E-01  0.536E-01
 10.199  0.521E-01  0.521E-01
 10.209  0.505E-01  0.505E-01
 10.219  0.488E-01  0.488E-01
 10.229  0.472E-01  0.472E-01
 10.239  0.456E-01  0.456E-01
 10.249  0.441E-01  0.441E-01
 10.259  0.428E-01  0.428E-01
 10.269  0.416E-01  0.416E-01
 10.279  0.407E-01  0.407E-01
 10.289  0.400E-01  0.400E-01
 10.299  0.396E-01  0.396E-01
 10.309  0.394E-01  0.394E-01
 10.319  0.396E-01  0.396E-01
 10.329  0.400E-01  0.400E-01
 10.339  0.408E-01  0.408E-01
 10.349  0.418E-01  0.418E-01
 10.359  0.430E-01  0.430E-01
 10.369  0.445E-01  0.445E-01
 10.379  0.461E-01  0.461E-01
 10.389  0.479E-01  0.479E-01
 10.399  0.498E-01  0.498E-01
 10.409  0.517E-01  0.517E-01
 10.419  0.535E-01  0.535E-01
 10.429  0.553E-01  0.553E-01
 10.439  0.570E-01  0.570E-01
 10.449  0.586E-01  0.586E-01
 10.459  0.600E-01  0.600E-01
 10.469  0.612E-01  0.612E-01
 10.479  0.622E-01  0.622E-01
 10.489  0.630E-01  0.630E-01
 10.499  0.636E-01  0.636E-01
 10.509  0.640E-01  0.640E-01
 10.519  0.643E-01  0.643E-01
 10.529  0.644E-01  0.644E-01
 10.539  0.644E-01  0.644E-01
 10.549  0.644E-01  0.644E-01
 10.559  0.643E-01  0.643E-01
 10.569  0.642E-01  0.642E-01
 10.579  0.640E-01  0.640E-01
 10.589  0.639E-01  0.639E-01
 10.599  0.638E-01  0.638E-01
 10.609  0.637E-01  0.637E-01
 10.619  0.637E-01  0.637E-01
 10.629  0.636E-01  0.636E-01
 10.639  0.636E-01  0.636E-01
 10.649  0.636E-01  0.636E-01
 10.659  0.635E-01  0.635E-01
 10.669  0.634E-01  0.634E-01
 10.679  0.633E-01  0.633E-01
 10.689  0.631E-01  0.631E-01
 10.699  0.629E-01  0.629E-01
 10.709  0.625E-01  0.625E-01
 10.719  0.622E-01  0.622E-01
 10.729  0.617E-01  0.617E-01
 10.739  0.611E-01  0.611E-01
 10.749  0.605E-01  0.605E-01
 10.759  0.598E-01  0.598E-01
 10.769  0.590E-01  0.590E-01
 10.779  0.582E-01  0.582E-01
 10.789  0.573E-01  0.573E-01
 10.799  0.564E-01  0.564E-01
 10.809  0.554E-01  0.554E-01
 10.819  0.543E-01  0.543E-01
 10.829  0.532E-01  0.532E-01
 10.839  0.520E-01  0.520E-01
 10.849  0.508E-01  0.508E-01
 10.859  0.496E-01  0.496E-01
 10.869  0.483E-01  0.483E-01
 10.879  0.470E-01  0.470E-01
 10.889  0.456E-01  0.456E-01
 10.899  0.443E-01  0.443E-01
 10.909  0.429E-01  0.429E-01
 10.919  0.415E-01  0.415E-01
 10.929  0.401E-01  0.401E-01
 10.939  0.388E-01  0.388E-01
 10.949  0.374E-01  0.374E-01
 10.959  0.361E-01  0.361E-01
 10.969  0.348E-01  0.348E-01
 10.979  0.336E-01  0.336E-01
 10.989  0.324E-01  0.324E-01
 10.999  0.313E-01  0.313E-01
 11.009  0.302E-01  0.302E-01
 11.019  0.292E-01  0.292E-01
 11.029  0.282E-01  0.282E-01
 11.039  0.273E-01  0.273E-01
 11.049  0.264E-01  0.264E-01
 11.059  0.256E-01  0.256E-01
 11.069  0.248E-01  0.248E-01
 11.079  0.240E-01  0.240E-01
 11.089  0.232E-01  0.232E-01
 11.099  0.224E-01  0.224E-01
 11.109  0.217E-01  0.217E-01
 11.119  0.209E-01  0.209E-01
 11.129  0.202E-01  0.202E-01
 11.139  0.195E-01  0.195E-01
 11.149  0.188E-01  0.188E-01
 11.159  0.181E-01  0.181E-01
 11.169  0.174E-01  0.174E-01
 11.179  0.168E-01  0.168E-01
 11.189  0.162E-01  0.162E-01
 11.199  0.156E-01  0.156E-01
 11.209  0.151E-01  0.151E-01
 11.219  0.146E-01  0.146E-01
 11.229  0.142E-01  0.142E-01
 11.239  0.139E-01  0.139E-01
 11.249  0.136E-01  0.136E-01
 11.259  0.134E-01  0.134E-01
 11.269  0.133E-01  0.133E-01
 11.279  0.132E-01  0.132E-01
 11.289  0.132E-01  0.132E-01
 11.299  0.134E-01  0.134E-01
 11.309  0.135E-01  0.135E-01
 11.319  0.138E-01  0.138E-01
 11.329  0.141E-01  0.141E-01
 11.339  0.144E-01  0.144E-01
 11.349  0.148E-01  0.148E-01
 11.359  0.153E-01  0.153E-01
 11.369  0.157E-01  0.157E-01
 11.379  0.162E-01  0.162E-01
 11.389  0.167E-01  0.167E-01
 11.399  0.172E-01  0.172E-01
 11.409  0.178E-01  0.178E-01
 11.419  0.183E-01  0.183E-01
 11.429  0.187E-01  0.187E-01
 11.439  0.192E-01  0.192E-01
 11.449  0.197E-01  0.197E-01
 11.459  0.202E-01  0.202E-01
 11.469  0.206E-01  0.206E-01
 11.479  0.211E-01  0.211E-01
 11.489  0.216E-01  0.216E-01
 11.499  0.221E-01  0.221E-01
 11.509  0.226E-01  0.226E-01
 11.519  0.232E-01  0.232E-01
 11.529  0.238E-01  0.238E-01
 11.539  0.246E-01  0.246E-01
 11.549  0.254E-01  0.254E-01
 11.559  0.263E-01  0.263E-01
 11.569  0.273E-01  0.273E-01
 11.579  0.285E-01  0.285E-01
 11.589  0.298E-01  0.298E-01
 11.599  0.312E-01  0.312E-01
 11.609  0.328E-01  0.328E-01
 11.619  0.345E-01  0.345E-01
 11.629  0.362E-01  0.362E-01
 11.639  0.381E-01  0.381E-01
 11.649  0.400E-01  0.400E-01
 11.659  0.420E-01  0.420E-01
 11.669  0.440E-01  0.440E-01
 11.679  0.460E-01  0.460E-01
 11.689  0.480E-01  0.480E-01
 11.699  0.499E-01  0.499E-01
 11.709  0.517E-01  0.517E-01
 11.719  0.533E-01  0.533E-01
 11.729  0.549E-01  0.549E-01
 11.739  0.563E-01  0.563E-01
 11.749  0.575E-01  0.575E-01
 11.759  0.585E-01  0.585E-01
 11.769  0.594E-01  0.594E-01
 11.779  0.602E-01  0.602E-01
 11.789  0.608E-01  0.608E-01
 11.799  0.612E-01  0.612E-01
 11.809  0.616E-01  0.616E-01
 11.819  0.618E-01  0.618E-01
 11.829  0.620E-01  0.620E-01
 11.839  0.622E-01  0.622E-01
 11.849  0.623E-01  0.623E-01
 11.859  0.624E-01  0.624E-01
 11.869  0.625E-01  0.625E-01
 11.879  0.625E-01  0.625E-01
 11.889  0.627E-01  0.627E-01
 11.899  0.628E-01  0.628E-01
 11.909  0.629E-01  0.629E-01
 11.919  0.630E-01  0.630E-01
 11.929  0.630E-01  0.630E-01
 11.939  0.630E-01  0.630E-01
 11.949  0.630E-01  0.630E-01
 11.959  0.629E-01  0.629E-01
 11.969  0.626E-01  0.626E-01
 11.979  0.623E-01  0.623E-01
 11.989  0.618E-01  0.618E-01
 11.999  0.613E-01  0.613E-01
 12.009  0.606E-01  0.606E-01
 12.019  0.599E-01  0.599E-01
 12.029  0.590E-01  0.590E-01
 12.039  0.581E-01  0.581E-01
 12.049  0.572E-01  0.572E-01
 12.059  0.563E-01  0.563E-01
 12.069  0.554E-01  0.554E-01
 12.079  0.546E-01  0.546E-01
 12.089  0.539E-01  0.539E-01
 12.099  0.532E-01  0.532E-01
 12.109  0.527E-01  0.527E-01
 12.119  0.523E-01  0.523E-01
 12.129  0.520E-01  0.520E-01
 12.139  0.518E-01  0.518E-01
 12.149  0.518E-01  0.518E-01
 12.159  0.518E-01  0.518E-01
 12.169  0.519E-01  0.519E-01
 12.179  0.521E-01  0.521E-01
 12.189  0.523E-01  0.523E-01
 12.199  0.525E-01  0.525E-01
 12.209  0.527E-01  0.527E-01
 12.219  0.528E-01  0.528E-01
 12.229  0.529E-01  0.529E-01
 12.239  0.528E-01  0.528E-01
 12.249  0.527E-01  0.527E-01
 12.259  0.525E-01  0.525E-01
 12.269  0.522E-01  0.522E-01
 12.279  0.518E-01  0.518E-01
 12.289  0.514E-01  0.514E-01
 12.299  0.508E-01  0.508E-01
 12.309  0.502E-01  0.502E-01
 12.319  0.496E-01  0.496E-01
 12.329  0.489E-01  0.489E-01
 12.339  0.482E-01  0.482E-01
 12.349  0.475E-01  0.475E-01
 12.359  0.469E-01  0.469E-01
 12.369  0.462E-01  0.462E-01
 12.379  0.456E-01  0.456E-01
 12.389  0.450E-01  0.450E-01
 12.399  0.444E-01  0.444E-01
 12.409  0.439E-01  0.439E-01
 12.419  0.433E-01  0.433E-01
 12.429  0.428E-01  0.428E-01
 12.439  0.422E-01  0.422E-01
 12.449  0.417E-01  0.417E-01
 12.459  0.411E-01  0.411E-01
 12.469  0.405E-01  0.405E-01
 12.479  0.399E-01  0.399E-01
 12.489  0.393E-01  0.393E-01
 12.499  0.387E-01  0.387E-01
 12.509  0.382E-01  0.382E-01
 12.519  0.377E-01  0.377E-01
 12.529  0.372E-01  0.372E-01
 12.539  0.368E-01  0.368E-01
 12.549  0.366E-01  0.366E-01
 12.559  0.364E-01  0.364E-01
 12.569  0.364E-01  0.364E-01
 12.579  0.366E-01  0.366E-01
 12.589  0.369E-01  0.369E-01
 12.599  0.374E-01  0.374E-01
 12.609  0.380E-01  0.380E-01
 12.619  0.387E-01  0.387E-01
 12.629  0.396E-01  0.396E-01
 12.639  0.406E-01  0.406E-01
 12.649  0.417E-01  0.417E-01
 12.659  0.428E-01  0.428E-01
 12.669  0.438E-01  0.438E-01
 12.679  0.449E-01  0.449E-01
 12.689  0.459E-01  0.459E-01
 12.699  0.467E-01  0.467E-01
 12.709  0.474E-01  0.474E-01
 12.719  0.480E-01  0.480E-01
 12.729  0.483E-01  0.483E-01
 12.739  0.485E-01  0.485E-01
 12.749  0.484E-01  0.484E-01
 12.759  0.481E-01  0.481E-01
 12.769  0.476E-01  0.476E-01
 12.779  0.469E-01  0.469E-01
 12.789  0.461E-01  0.461E-01
 12.799  0.451E-01  0.451E-01
 12.809  0.439E-01  0.439E-01
 12.819  0.427E-01  0.427E-01
 12.829  0.414E-01  0.414E-01
 12.839  0.401E-01  0.401E-01
 12.849  0.389E-01  0.389E-01
 12.859  0.376E-01  0.376E-01
 12.869  0.365E-01  0.365E-01
 12.879  0.354E-01  0.354E-01
 12.889  0.345E-01  0.345E-01
 12.899  0.338E-01  0.338E-01
 12.909  0.332E-01  0.332E-01
 12.919  0.328E-01  0.328E-01
 12.929  0.326E-01  0.326E-01
 12.939  0.326E-01  0.326E-01
 12.949  0.328E-01  0.328E-01
 12.959  0.332E-01  0.332E-01
 12.969  0.337E-01  0.337E-01
 12.979  0.344E-01  0.344E-01
 12.989  0.353E-01  0.353E-01
 12.999  0.363E-01  0.363E-01
 13.009  0.374E-01  0.374E-01
 13.019  0.387E-01  0.387E-01
 13.029  0.400E-01  0.400E-01
 13.039  0.414E-01  0.414E-01
 13.049  0.428E-01  0.428E-01
 13.059  0.442E-01  0.442E-01
 13.069  0.456E-01  0.456E-01
 13.079  0.470E-01  0.470E-01
 13.089  0.483E-01  0.483E-01
 13.099  0.495E-01  0.495E-01
 13.109  0.507E-01  0.507E-01
 13.119  0.517E-01  0.517E-01
 13.129  0.527E-01  0.527E-01
 13.139  0.535E-01  0.535E-01
 13.149  0.541E-01  0.541E-01
 13.159  0.546E-01  0.546E-01
 13.169  0.550E-01  0.550E-01
 13.179  0.552E-01  0.552E-01
 13.189  0.552E-01  0.552E-01
 13.199  0.552E-01  0.552E-01
 13.209  0.550E-01  0.550E-01
 13.219  0.546E-01  0.546E-01
 13.229  0.542E-01  0.542E-01
 13.239  0.537E-01  0.537E-01
 13.249  0.531E-01  0.531E-01
 13.259  0.524E-01  0.524E-01
 13.269  0.517E-01  0.517E-01
 13.279  0.509E-01  0.509E-01
 13.289  0.501E-01  0.501E-01
 13.299  0.492E-01  0.492E-01
 13.309  0.483E-01  0.483E-01
 13.319  0.474E-01  0.474E-01
 13.329  0.465E-01  0.465E-01
 13.339  0.455E-01  0.455E-01
 13.349  0.445E-01  0.445E-01
 13.359  0.435E-01  0.435E-01
 13.369  0.424E-01  0.424E-01
 13.379  0.413E-01  0.413E-01
 13.389  0.401E-01  0.401E-01
 13.399  0.390E-01  0.390E-01
 13.409  0.377E-01  0.377E-01
 13.419  0.365E-01  0.365E-01
 13.429  0.352E-01  0.352E-01
 13.439  0.340E-01  0.340E-01
 13.449  0.327E-01  0.327E-01
 13.459  0.314E-01  0.314E-01
 13.469  0.302E-01  0.302E-01
 13.479  0.290E-01  0.290E-01
 13.489  0.279E-01  0.279E-01
 13.499  0.268E-01  0.268E-01
 13.509  0.257E-01  0.257E-01
 13.519  0.248E-01  0.248E-01
 13.529  0.239E-01  0.239E-01
 13.539  0.231E-01  0.231E-01
 13.549  0.224E-01  0.224E-01
 13.559  0.219E-01  0.219E-01
 13.569  0.213E-01  0.213E-01
 13.579  0.209E-01  0.209E-01
 13.589  0.206E-01  0.206E-01
 13.599  0.203E-01  0.203E-01
 13.609  0.201E-01  0.201E-01
 13.619  0.199E-01  0.199E-01
 13.629  0.198E-01  0.198E-01
 13.639  0.197E-01  0.197E-01
 13.649  0.196E-01  0.196E-01
 13.659  0.195E-01  0.195E-01
 13.669  0.194E-01  0.194E-01
 13.679  0.194E-01  0.194E-01
 13.689  0.193E-01  0.193E-01
 13.699  0.192E-01  0.192E-01
 13.709  0.190E-01  0.190E-01
 13.719  0.189E-01  0.189E-01
 13.729  0.187E-01  0.187E-01
 13.739  0.185E-01  0.185E-01
 13.749  0.182E-01  0.182E-01
 13.759  0.179E-01  0.179E-01
 13.769  0.175E-01  0.175E-01
 13.779  0.172E-01  0.172E-01
 13.789  0.167E-01  0.167E-01
 13.799  0.163E-01  0.163E-01
 13.809  0.158E-01  0.158E-01
 13.819  0.153E-01  0.153E-01
 13.829  0.147E-01  0.147E-01
 13.839  0.141E-01  0.141E-01
 13.849  0.135E-01  0.135E-01
 13.859  0.129E-01  0.129E-01
 13.869  0.123E-01  0.123E-01
 13.879  0.117E-01  0.117E-01
 13.889  0.111E-01  0.111E-01
 13.899  0.105E-01  0.105E-01
 13.909  0.988E-02  0.988E-02
 13.919  0.931E-02  0.931E-02
 13.929  0.876E-02  0.876E-02
 13.939  0.825E-02  0.825E-02
 13.949  0.778E-02  0.778E-02
 13.959  0.734E-02  0.734E-02
 13.969  0.694E-02  0.694E-02
 13.979  0.659E-02  0.659E-02
 13.989  0.627E-02  0.627E-02
 13.999  0.600E-02  0.600E-02
 14.009  0.576E-02  0.576E-02
 14.019  0.557E-02  0.557E-02
 14.029  0.541E-02  0.541E-02
 14.039  0.528E-02  0.528E-02
 14.049  0.518E-02  0.518E-02
 14.059  0.511E-02  0.511E-02
 14.069  0.506E-02  0.506E-02
 14.079  0.504E-02  0.504E-02
 14.089  0.503E-02  0.503E-02
 14.099  0.503E-02  0.503E-02
 14.109  0.504E-02  0.504E-02
 14.119  0.506E-02  0.506E-02
 14.129  0.509E-02  0.509E-02
 14.139  0.511E-02  0.511E-02
 14.149  0.514E-02  0.514E-02
 14.159  0.516E-02  0.516E-02
 14.169  0.517E-02  0.517E-02
 14.179  0.517E-02  0.517E-02
 14.189  0.517E-02  0.517E-02
 14.199  0.515E-02  0.515E-02
 14.209  0.512E-02  0.512E-02
 14.219  0.507E-02  0.507E-02
 14.229  0.502E-02  0.502E-02
 14.239  0.495E-02  0.495E-02
 14.249  0.487E-02  0.487E-02
 14.259  0.477E-02  0.477E-02
 14.269  0.467E-02  0.467E-02
 14.279  0.456E-02  0.456E-02
 14.289  0.444E-02  0.444E-02
 14.299  0.431E-02  0.431E-02
 14.309  0.418E-02  0.418E-02
 14.319  0.405E-02  0.405E-02
 14.329  0.391E-02  0.391E-02
 14.339  0.378E-02  0.378E-02
 14.349  0.364E-02  0.364E-02
 14.359  0.350E-02  0.350E-02
 14.369  0.336E-02  0.336E-02
 14.379  0.323E-02  0.323E-02
 14.389  0.310E-02  0.310E-02
 14.399  0.298E-02  0.298E-02
 14.409  0.287E-02  0.287E-02
 14.419  0.276E-02  0.276E-02
 14.429  0.266E-02  0.266E-02
 14.439  0.257E-02  0.257E-02
 14.449  0.248E-02  0.248E-02
 14.459  0.241E-02  0.241E-02
 14.469  0.235E-02  0.235E-02
 14.479  0.230E-02  0.230E-02
 14.489  0.226E-02  0.226E-02
 14.499  0.222E-02  0.222E-02
 14.509  0.220E-02  0.220E-02
 14.519  0.218E-02  0.218E-02
 14.529  0.216E-02  0.216E-02
 14.539  0.215E-02  0.215E-02
 14.549  0.213E-02  0.213E-02
 14.559  0.212E-02  0.212E-02
 14.569  0.211E-02  0.211E-02
 14.579  0.209E-02  0.209E-02
 14.589  0.207E-02  0.207E-02
 14.599  0.205E-02  0.205E-02
 14.609  0.202E-02  0.202E-02
 14.619  0.198E-02  0.198E-02
 14.629  0.193E-02  0.193E-02
 14.639  0.188E-02  0.188E-02
 14.649  0.183E-02  0.183E-02
 14.659  0.177E-02  0.177E-02
 14.669  0.170E-02  0.170E-02
 14.679  0.163E-02  0.163E-02
 14.689  0.156E-02  0.156E-02
 14.699  0.148E-02  0.148E-02
 14.709  0.141E-02  0.141E-02
 14.719  0.133E-02  0.133E-02
 14.729  0.125E-02  0.125E-02
 14.739  0.118E-02  0.118E-02
 14.749  0.111E-02  0.111E-02
 14.759  0.104E-02  0.104E-02
 14.769  0.977E-03  0.977E-03
 14.779  0.918E-03  0.918E-03
 14.789  0.865E-03  0.865E-03
 14.799  0.817E-03  0.817E-03
 14.809  0.774E-03  0.774E-03
 14.819  0.736E-03  0.736E-03
 14.829  0.704E-03  0.704E-03
 14.839  0.676E-03  0.676E-03
 14.849  0.653E-03  0.653E-03
 14.859  0.634E-03  0.634E-03
 14.869  0.618E-03  0.618E-03
 14.879  0.605E-03  0.605E-03
 14.889  0.594E-03  0.594E-03
 14.899  0.586E-03  0.586E-03
 14.909  0.579E-03  0.579E-03
 14.919  0.572E-03  0.572E-03
 14.929  0.567E-03  0.567E-03
 14.939  0.561E-03  0.561E-03
 14.949  0.555E-03  0.555E-03
 14.959  0.549E-03  0.549E-03
 14.969  0.542E-03  0.542E-03
 14.979  0.534E-03  0.534E-03
 14.989  0.524E-03  0.524E-03
 14.999  0.513E-03  0.513E-03
 15.009  0.500E-03  0.500E-03
 15.019  0.486E-03  0.486E-03
 15.029  0.469E-03  0.469E-03
 15.039  0.452E-03  0.452E-03
 15.049  0.433E-03  0.433E-03
 15.059  0.412E-03  0.412E-03
 15.069  0.391E-03  0.391E-03
 15.079  0.370E-03  0.370E-03
 15.089  0.348E-03  0.348E-03
 15.099  0.326E-03  0.326E-03
 15.109  0.304E-03  0.304E-03
 15.119  0.284E-03  0.284E-03
 15.129  0.265E-03  0.265E-03
 15.139  0.247E-03  0.247E-03
 15.149  0.231E-03  0.231E-03
 15.159  0.216E-03  0.216E-03
 15.169  0.204E-03  0.204E-03
 15.179  0.193E-03  0.193E-03
 15.189  0.184E-03  0.184E-03
 15.199  0.177E-03  0.177E-03
 15.209  0.172E-03  0.172E-03
 15.219  0.168E-03  0.168E-03
 15.229  0.164E-03  0.164E-03
 15.239  0.162E-03  0.162E-03
 15.249  0.159E-03  0.159E-03
 15.259  0.157E-03  0.157E-03
 15.269  0.155E-03  0.155E-03
 15.279  0.153E-03  0.153E-03
 15.289  0.150E-03  0.150E-03
 15.299  0.146E-03  0.146E-03
 15.309  0.142E-03  0.142E-03
 15.319  0.137E-03  0.137E-03
 15.329  0.130E-03  0.130E-03
 15.339  0.124E-03  0.124E-03
 15.349  0.116E-03  0.116E-03
 15.359  0.108E-03  0.108E-03
 15.369  0.999E-04  0.999E-04
 15.379  0.913E-04  0.913E-04
 15.389  0.827E-04  0.827E-04
 15.399  0.741E-04  0.741E-04
 15.409  0.657E-04  0.657E-04
 15.419  0.577E-04  0.577E-04
 15.429  0.502E-04  0.502E-04
 15.439  0.432E-04  0.432E-04
 15.449  0.367E-04  0.367E-04
 15.459  0.310E-04  0.310E-04
 15.469  0.258E-04  0.258E-04
 15.479  0.213E-04  0.213E-04
 15.489  0.174E-04  0.174E-04
 15.499  0.140E-04  0.140E-04
 15.509  0.112E-04  0.112E-04
 15.519  0.888E-05  0.888E-05
 15.529  0.695E-05  0.695E-05
 15.539  0.538E-05  0.538E-05
 15.549  0.412E-05  0.412E-05
 15.559  0.313E-05  0.313E-05
 15.569  0.234E-05  0.234E-05
 15.579  0.174E-05  0.174E-05
 15.589  0.128E-05  0.128E-05
 15.599  0.928E-06  0.928E-06
 15.609  0.667E-06  0.667E-06
 15.619  0.474E-06  0.474E-06
 15.629  0.334E-06  0.334E-06
 15.639  0.232E-06  0.232E-06
 15.649  0.160E-06  0.160E-06
 15.659  0.109E-06  0.109E-06
 15.669  0.735E-07  0.735E-07
 15.679  0.490E-07  0.490E-07
 15.689  0.323E-07  0.323E-07
 15.699  0.211E-07  0.211E-07
 15.709  0.136E-07  0.136E-07
 15.719  0.871E-08  0.871E-08
 15.729  0.551E-08  0.551E-08
 15.739  0.344E-08  0.344E-08
 15.749  0.213E-08  0.213E-08
 15.759  0.130E-08  0.130E-08
 15.769  0.790E-09  0.790E-09
 15.779  0.473E-09  0.473E-09
 15.789  0.281E-09  0.281E-09
 15.799  0.165E-09  0.165E-09
 15.809  0.955E-10  0.955E-10
 15.819  0.548E-10  0.548E-10
 15.829  0.311E-10  0.311E-10
 15.839  0.175E-10  0.175E-10
 15.849  0.972E-11  0.972E-11
 15.859  0.535E-11  0.535E-11
 15.869  0.291E-11  0.291E-11
 15.879  0.157E-11  0.157E-11
 15.889  0.834E-12  0.834E-12
 15.899  0.439E-12  0.439E-12
 15.909  0.229E-12  0.229E-12
 15.919  0.118E-12  0.118E-12
 15.929  0.603E-13  0.603E-13
 15.939  0.304E-13  0.304E-13
 15.949  0.152E-13  0.152E-13
 15.959  0.753E-14  0.753E-14
 15.969  0.369E-14  0.369E-14
 15.979  0.166E-14  0.166E-14
 15.989  0.798E-15  0.798E-15
 15.999  0.921E-17  0.921E-17
 16.009  0.625E-17  0.625E-17
 16.019  0.419E-17  0.419E-17
 16.029  0.278E-17  0.278E-17
 16.039  0.182E-17  0.182E-17
 16.049  0.118E-17  0.118E-17
 16.059  0.760E-18  0.760E-18
