# E (eV)   ldos(E)   pdos(E)   
 -8.271  0.926E-07  0.926E-07
 -8.261  0.150E-06  0.150E-06
 -8.251  0.242E-06  0.242E-06
 -8.241  0.385E-06  0.385E-06
 -8.231  0.606E-06  0.606E-06
 -8.221  0.945E-06  0.945E-06
 -8.211  0.146E-05  0.146E-05
 -8.201  0.223E-05  0.223E-05
 -8.191  0.336E-05  0.336E-05
 -8.181  0.502E-05  0.502E-05
 -8.171  0.743E-05  0.743E-05
 -8.161  0.109E-04  0.109E-04
 -8.151  0.158E-04  0.158E-04
 -8.141  0.226E-04  0.226E-04
 -8.131  0.321E-04  0.321E-04
 -8.121  0.450E-04  0.450E-04
 -8.111  0.625E-04  0.625E-04
 -8.101  0.860E-04  0.860E-04
 -8.091  0.117E-03  0.117E-03
 -8.081  0.158E-03  0.158E-03
 -8.071  0.210E-03  0.210E-03
 -8.061  0.277E-03  0.277E-03
 -8.051  0.362E-03  0.362E-03
 -8.041  0.467E-03  0.467E-03
 -8.031  0.597E-03  0.597E-03
 -8.021  0.755E-03  0.755E-03
 -8.011  0.946E-03  0.946E-03
 -8.001  0.117E-02  0.117E-02
 -7.991  0.144E-02  0.144E-02
 -7.981  0.175E-02  0.175E-02
 -7.971  0.210E-02  0.210E-02
 -7.961  0.249E-02  0.249E-02
 -7.951  0.294E-02  0.294E-02
 -7.941  0.342E-02  0.342E-02
 -7.931  0.394E-02  0.394E-02
 -7.921  0.450E-02  0.450E-02
 -7.911  0.508E-02  0.508E-02
 -7.901  0.568E-02  0.568E-02
 -7.891  0.629E-02  0.629E-02
 -7.881  0.689E-02  0.689E-02
 -7.871  0.748E-02  0.748E-02
 -7.861  0.803E-02  0.803E-02
 -7.851  0.853E-02  0.853E-02
 -7.841  0.898E-02  0.898E-02
 -7.831  0.935E-02  0.935E-02
 -7.821  0.965E-02  0.965E-02
 -7.811  0.985E-02  0.985E-02
 -7.801  0.996E-02  0.996E-02
 -7.791  0.998E-02  0.998E-02
 -7.781  0.989E-02  0.989E-02
 -7.771  0.972E-02  0.972E-02
 -7.761  0.946E-02  0.946E-02
 -7.751  0.912E-02  0.912E-02
 -7.741  0.871E-02  0.871E-02
 -7.731  0.824E-02  0.824E-02
 -7.721  0.773E-02  0.773E-02
 -7.711  0.719E-02  0.719E-02
 -7.701  0.663E-02  0.663E-02
 -7.691  0.606E-02  0.606E-02
 -7.681  0.549E-02  0.549E-02
 -7.671  0.495E-02  0.495E-02
 -7.661  0.442E-02  0.442E-02
 -7.651  0.392E-02  0.392E-02
 -7.641  0.345E-02  0.345E-02
 -7.631  0.302E-02  0.302E-02
 -7.621  0.263E-02  0.263E-02
 -7.611  0.228E-02  0.228E-02
 -7.601  0.196E-02  0.196E-02
 -7.591  0.168E-02  0.168E-02
 -7.581  0.144E-02  0.144E-02
 -7.571  0.122E-02  0.122E-02
 -7.561  0.104E-02  0.104E-02
 -7.551  0.877E-03  0.877E-03
 -7.541  0.739E-03  0.739E-03
 -7.531  0.621E-03  0.621E-03
 -7.521  0.520E-03  0.520E-03
 -7.511  0.434E-03  0.434E-03
 -7.501  0.362E-03  0.362E-03
 -7.491  0.300E-03  0.300E-03
 -7.481  0.248E-03  0.248E-03
 -7.471  0.204E-03  0.204E-03
 -7.461  0.167E-03  0.167E-03
 -7.451  0.136E-03  0.136E-03
 -7.441  0.111E-03  0.111E-03
 -7.431  0.891E-04  0.891E-04
 -7.421  0.714E-04  0.714E-04
 -7.411  0.568E-04  0.568E-04
 -7.401  0.449E-04  0.449E-04
 -7.391  0.352E-04  0.352E-04
 -7.381  0.274E-04  0.274E-04
 -7.371  0.211E-04  0.211E-04
 -7.361  0.162E-04  0.162E-04
 -7.351  0.123E-04  0.123E-04
 -7.341  0.925E-05  0.925E-05
 -7.331  0.690E-05  0.690E-05
 -7.321  0.510E-05  0.510E-05
 -7.311  0.374E-05  0.374E-05
 -7.301  0.271E-05  0.271E-05
 -7.291  0.195E-05  0.195E-05
 -7.281  0.139E-05  0.139E-05
 -7.271  0.978E-06  0.978E-06
 -7.261  0.683E-06  0.683E-06
 -7.251  0.472E-06  0.472E-06
 -7.241  0.323E-06  0.323E-06
 -7.231  0.219E-06  0.219E-06
 -7.221  0.147E-06  0.147E-06
 -7.211  0.978E-07  0.978E-07
 -7.201  0.643E-07  0.643E-07
 -7.191  0.419E-07  0.419E-07
 -7.181  0.270E-07  0.270E-07
 -7.171  0.172E-07  0.172E-07
 -7.161  0.109E-07  0.109E-07
 -7.151  0.681E-08  0.681E-08
 -7.141  0.421E-08  0.421E-08
 -7.131  0.258E-08  0.258E-08
 -7.121  0.156E-08  0.156E-08
 -7.111  0.938E-09  0.938E-09
 -7.101  0.557E-09  0.557E-09
 -7.091  0.327E-09  0.327E-09
 -7.081  0.190E-09  0.190E-09
 -7.071  0.110E-09  0.110E-09
 -7.061  0.624E-10  0.624E-10
 -7.051  0.352E-10  0.352E-10
 -7.041  0.196E-10  0.196E-10
 -7.031  0.108E-10  0.108E-10
 -7.021  0.592E-11  0.592E-11
 -7.011  0.320E-11  0.320E-11
 -7.001  0.171E-11  0.171E-11
 -6.991  0.907E-12  0.907E-12
 -6.981  0.475E-12  0.475E-12
 -6.971  0.246E-12  0.246E-12
 -6.961  0.126E-12  0.126E-12
 -6.951  0.638E-13  0.638E-13
 -6.941  0.320E-13  0.320E-13
 -6.931  0.159E-13  0.159E-13
 -6.921  0.777E-14  0.777E-14
 -6.911  0.359E-14  0.359E-14
 -6.901  0.150E-14  0.150E-14
 -6.891  0.536E-15  0.536E-15
 -6.881  0.213E-15  0.213E-15
 -6.871  0.172E-16  0.172E-16
 -6.861  0.121E-18  0.121E-18
 -6.851  0.000E+00  0.000E+00
 -6.841  0.000E+00  0.000E+00
 -6.831  0.000E+00  0.000E+00
 -6.821  0.000E+00  0.000E+00
 -6.811  0.000E+00  0.000E+00
 -6.801  0.000E+00  0.000E+00
 -6.791  0.000E+00  0.000E+00
 -6.781  0.000E+00  0.000E+00
 -6.771  0.000E+00  0.000E+00
 -6.761  0.000E+00  0.000E+00
 -6.751  0.000E+00  0.000E+00
 -6.741  0.000E+00  0.000E+00
 -6.731  0.000E+00  0.000E+00
 -6.721  0.000E+00  0.000E+00
 -6.711  0.000E+00  0.000E+00
 -6.701  0.000E+00  0.000E+00
 -6.691  0.000E+00  0.000E+00
 -6.681  0.000E+00  0.000E+00
 -6.671  0.000E+00  0.000E+00
 -6.661  0.000E+00  0.000E+00
 -6.651  0.000E+00  0.000E+00
 -6.641  0.000E+00  0.000E+00
 -6.631  0.000E+00  0.000E+00
 -6.621  0.000E+00  0.000E+00
 -6.611  0.000E+00  0.000E+00
 -6.601  0.000E+00  0.000E+00
 -6.591  0.000E+00  0.000E+00
 -6.581  0.000E+00  0.000E+00
 -6.571  0.000E+00  0.000E+00
 -6.561  0.000E+00  0.000E+00
 -6.551  0.000E+00  0.000E+00
 -6.541  0.000E+00  0.000E+00
 -6.531  0.000E+00  0.000E+00
 -6.521  0.000E+00  0.000E+00
 -6.511  0.000E+00  0.000E+00
 -6.501  0.000E+00  0.000E+00
 -6.491  0.000E+00  0.000E+00
 -6.481  0.000E+00  0.000E+00
 -6.471  0.000E+00  0.000E+00
 -6.461  0.000E+00  0.000E+00
 -6.451  0.000E+00  0.000E+00
 -6.441  0.000E+00  0.000E+00
 -6.431  0.000E+00  0.000E+00
 -6.421  0.000E+00  0.000E+00
 -6.411  0.000E+00  0.000E+00
 -6.401  0.000E+00  0.000E+00
 -6.391  0.000E+00  0.000E+00
 -6.381  0.000E+00  0.000E+00
 -6.371  0.000E+00  0.000E+00
 -6.361  0.000E+00  0.000E+00
 -6.351  0.000E+00  0.000E+00
 -6.341  0.000E+00  0.000E+00
 -6.331  0.000E+00  0.000E+00
 -6.321  0.000E+00  0.000E+00
 -6.311  0.000E+00  0.000E+00
 -6.301  0.000E+00  0.000E+00
 -6.291  0.000E+00  0.000E+00
 -6.281  0.000E+00  0.000E+00
 -6.271  0.000E+00  0.000E+00
 -6.261  0.000E+00  0.000E+00
 -6.251  0.000E+00  0.000E+00
 -6.241  0.000E+00  0.000E+00
 -6.231  0.000E+00  0.000E+00
 -6.221  0.000E+00  0.000E+00
 -6.211  0.000E+00  0.000E+00
 -6.201  0.000E+00  0.000E+00
 -6.191  0.000E+00  0.000E+00
 -6.181  0.000E+00  0.000E+00
 -6.171  0.000E+00  0.000E+00
 -6.161  0.000E+00  0.000E+00
 -6.151  0.000E+00  0.000E+00
 -6.141  0.000E+00  0.000E+00
 -6.131  0.000E+00  0.000E+00
 -6.121  0.000E+00  0.000E+00
 -6.111  0.000E+00  0.000E+00
 -6.101  0.000E+00  0.000E+00
 -6.091  0.000E+00  0.000E+00
 -6.081  0.000E+00  0.000E+00
 -6.071  0.000E+00  0.000E+00
 -6.061  0.000E+00  0.000E+00
 -6.051  0.000E+00  0.000E+00
 -6.041  0.000E+00  0.000E+00
 -6.031  0.000E+00  0.000E+00
 -6.021  0.000E+00  0.000E+00
 -6.011  0.000E+00  0.000E+00
 -6.001  0.000E+00  0.000E+00
 -5.991  0.000E+00  0.000E+00
 -5.981  0.000E+00  0.000E+00
 -5.971  0.000E+00  0.000E+00
 -5.961  0.000E+00  0.000E+00
 -5.951  0.000E+00  0.000E+00
 -5.941  0.000E+00  0.000E+00
 -5.931  0.000E+00  0.000E+00
 -5.921  0.000E+00  0.000E+00
 -5.911  0.000E+00  0.000E+00
 -5.901  0.000E+00  0.000E+00
 -5.891  0.000E+00  0.000E+00
 -5.881  0.000E+00  0.000E+00
 -5.871  0.000E+00  0.000E+00
 -5.861  0.000E+00  0.000E+00
 -5.851  0.000E+00  0.000E+00
 -5.841  0.000E+00  0.000E+00
 -5.831  0.000E+00  0.000E+00
 -5.821  0.000E+00  0.000E+00
 -5.811  0.000E+00  0.000E+00
 -5.801  0.000E+00  0.000E+00
 -5.791  0.000E+00  0.000E+00
 -5.781  0.000E+00  0.000E+00
 -5.771  0.000E+00  0.000E+00
 -5.761  0.000E+00  0.000E+00
 -5.751  0.000E+00  0.000E+00
 -5.741  0.000E+00  0.000E+00
 -5.731  0.000E+00  0.000E+00
 -5.721  0.000E+00  0.000E+00
 -5.711  0.000E+00  0.000E+00
 -5.701  0.000E+00  0.000E+00
 -5.691  0.000E+00  0.000E+00
 -5.681  0.000E+00  0.000E+00
 -5.671  0.000E+00  0.000E+00
 -5.661  0.000E+00  0.000E+00
 -5.651  0.000E+00  0.000E+00
 -5.641  0.000E+00  0.000E+00
 -5.631  0.000E+00  0.000E+00
 -5.621  0.000E+00  0.000E+00
 -5.611  0.000E+00  0.000E+00
 -5.601  0.000E+00  0.000E+00
 -5.591  0.000E+00  0.000E+00
 -5.581  0.000E+00  0.000E+00
 -5.571  0.000E+00  0.000E+00
 -5.561  0.000E+00  0.000E+00
 -5.551  0.000E+00  0.000E+00
 -5.541  0.000E+00  0.000E+00
 -5.531  0.000E+00  0.000E+00
 -5.521  0.000E+00  0.000E+00
 -5.511  0.000E+00  0.000E+00
 -5.501  0.000E+00  0.000E+00
 -5.491  0.000E+00  0.000E+00
 -5.481  0.142E-14  0.142E-14
 -5.471  0.300E-14  0.300E-14
 -5.461  0.626E-14  0.626E-14
 -5.451  0.417E-13  0.417E-13
 -5.441  0.866E-13  0.866E-13
 -5.431  0.178E-12  0.178E-12
 -5.421  0.380E-12  0.380E-12
 -5.411  0.766E-12  0.766E-12
 -5.401  0.153E-11  0.153E-11
 -5.391  0.309E-11  0.309E-11
 -5.381  0.605E-11  0.605E-11
 -5.371  0.117E-10  0.117E-10
 -5.361  0.225E-10  0.225E-10
 -5.351  0.426E-10  0.426E-10
 -5.341  0.800E-10  0.800E-10
 -5.331  0.149E-09  0.149E-09
 -5.321  0.273E-09  0.273E-09
 -5.311  0.497E-09  0.497E-09
 -5.301  0.895E-09  0.895E-09
 -5.291  0.160E-08  0.160E-08
 -5.281  0.281E-08  0.281E-08
 -5.271  0.491E-08  0.491E-08
 -5.261  0.848E-08  0.848E-08
 -5.251  0.145E-07  0.145E-07
 -5.241  0.245E-07  0.245E-07
 -5.231  0.411E-07  0.411E-07
 -5.221  0.682E-07  0.682E-07
 -5.211  0.112E-06  0.112E-06
 -5.201  0.182E-06  0.182E-06
 -5.191  0.292E-06  0.292E-06
 -5.181  0.465E-06  0.465E-06
 -5.171  0.733E-06  0.733E-06
 -5.161  0.114E-05  0.114E-05
 -5.151  0.177E-05  0.177E-05
 -5.141  0.270E-05  0.270E-05
 -5.131  0.409E-05  0.409E-05
 -5.121  0.612E-05  0.612E-05
 -5.111  0.908E-05  0.908E-05
 -5.101  0.133E-04  0.133E-04
 -5.091  0.194E-04  0.194E-04
 -5.081  0.279E-04  0.279E-04
 -5.071  0.399E-04  0.399E-04
 -5.061  0.563E-04  0.563E-04
 -5.051  0.787E-04  0.787E-04
 -5.041  0.109E-03  0.109E-03
 -5.031  0.150E-03  0.150E-03
 -5.021  0.203E-03  0.203E-03
 -5.011  0.273E-03  0.273E-03
 -5.001  0.365E-03  0.365E-03
 -4.991  0.482E-03  0.482E-03
 -4.981  0.630E-03  0.630E-03
 -4.971  0.817E-03  0.817E-03
 -4.961  0.105E-02  0.105E-02
 -4.951  0.134E-02  0.134E-02
 -4.941  0.169E-02  0.169E-02
 -4.931  0.211E-02  0.211E-02
 -4.921  0.261E-02  0.261E-02
 -4.911  0.321E-02  0.321E-02
 -4.901  0.391E-02  0.391E-02
 -4.891  0.472E-02  0.472E-02
 -4.881  0.565E-02  0.565E-02
 -4.871  0.672E-02  0.672E-02
 -4.861  0.791E-02  0.791E-02
 -4.851  0.925E-02  0.925E-02
 -4.841  0.107E-01  0.107E-01
 -4.831  0.124E-01  0.124E-01
 -4.821  0.141E-01  0.141E-01
 -4.811  0.160E-01  0.160E-01
 -4.801  0.180E-01  0.180E-01
 -4.791  0.202E-01  0.202E-01
 -4.781  0.224E-01  0.224E-01
 -4.771  0.248E-01  0.248E-01
 -4.761  0.272E-01  0.272E-01
 -4.751  0.296E-01  0.296E-01
 -4.741  0.321E-01  0.321E-01
 -4.731  0.346E-01  0.346E-01
 -4.721  0.372E-01  0.372E-01
 -4.711  0.397E-01  0.397E-01
 -4.701  0.422E-01  0.422E-01
 -4.691  0.446E-01  0.446E-01
 -4.681  0.470E-01  0.470E-01
 -4.671  0.493E-01  0.493E-01
 -4.661  0.515E-01  0.515E-01
 -4.651  0.537E-01  0.537E-01
 -4.641  0.557E-01  0.557E-01
 -4.631  0.577E-01  0.577E-01
 -4.621  0.596E-01  0.596E-01
 -4.611  0.614E-01  0.614E-01
 -4.601  0.631E-01  0.631E-01
 -4.591  0.647E-01  0.647E-01
 -4.581  0.663E-01  0.663E-01
 -4.571  0.677E-01  0.677E-01
 -4.561  0.691E-01  0.691E-01
 -4.551  0.705E-01  0.705E-01
 -4.541  0.717E-01  0.717E-01
 -4.531  0.729E-01  0.729E-01
 -4.521  0.741E-01  0.741E-01
 -4.511  0.752E-01  0.752E-01
 -4.501  0.762E-01  0.762E-01
 -4.491  0.772E-01  0.772E-01
 -4.481  0.782E-01  0.782E-01
 -4.471  0.791E-01  0.791E-01
 -4.461  0.800E-01  0.800E-01
 -4.451  0.809E-01  0.809E-01
 -4.441  0.817E-01  0.817E-01
 -4.431  0.825E-01  0.825E-01
 -4.421  0.833E-01  0.833E-01
 -4.411  0.841E-01  0.841E-01
 -4.401  0.848E-01  0.848E-01
 -4.391  0.855E-01  0.855E-01
 -4.381  0.862E-01  0.862E-01
 -4.371  0.869E-01  0.869E-01
 -4.361  0.875E-01  0.875E-01
 -4.351  0.882E-01  0.882E-01
 -4.341  0.888E-01  0.888E-01
 -4.331  0.894E-01  0.894E-01
 -4.321  0.900E-01  0.900E-01
 -4.311  0.906E-01  0.906E-01
 -4.301  0.912E-01  0.912E-01
 -4.291  0.918E-01  0.918E-01
 -4.281  0.924E-01  0.924E-01
 -4.271  0.929E-01  0.929E-01
 -4.261  0.935E-01  0.935E-01
 -4.251  0.940E-01  0.940E-01
 -4.241  0.945E-01  0.945E-01
 -4.231  0.950E-01  0.950E-01
 -4.221  0.955E-01  0.955E-01
 -4.211  0.959E-01  0.959E-01
 -4.201  0.964E-01  0.964E-01
 -4.191  0.969E-01  0.969E-01
 -4.181  0.973E-01  0.973E-01
 -4.171  0.978E-01  0.978E-01
 -4.161  0.983E-01  0.983E-01
 -4.151  0.988E-01  0.988E-01
 -4.141  0.992E-01  0.992E-01
 -4.131  0.997E-01  0.997E-01
 -4.121  0.100E+00  0.100E+00
 -4.111  0.101E+00  0.101E+00
 -4.101  0.101E+00  0.101E+00
 -4.091  0.102E+00  0.102E+00
 -4.081  0.102E+00  0.102E+00
 -4.071  0.102E+00  0.102E+00
 -4.061  0.103E+00  0.103E+00
 -4.051  0.103E+00  0.103E+00
 -4.041  0.104E+00  0.104E+00
 -4.031  0.104E+00  0.104E+00
 -4.021  0.104E+00  0.104E+00
 -4.011  0.105E+00  0.105E+00
 -4.001  0.105E+00  0.105E+00
 -3.991  0.105E+00  0.105E+00
 -3.981  0.106E+00  0.106E+00
 -3.971  0.106E+00  0.106E+00
 -3.961  0.107E+00  0.107E+00
 -3.951  0.107E+00  0.107E+00
 -3.941  0.108E+00  0.108E+00
 -3.931  0.108E+00  0.108E+00
 -3.921  0.108E+00  0.108E+00
 -3.911  0.109E+00  0.109E+00
 -3.901  0.109E+00  0.109E+00
 -3.891  0.110E+00  0.110E+00
 -3.881  0.110E+00  0.110E+00
 -3.871  0.111E+00  0.111E+00
 -3.861  0.111E+00  0.111E+00
 -3.851  0.111E+00  0.111E+00
 -3.841  0.112E+00  0.112E+00
 -3.831  0.112E+00  0.112E+00
 -3.821  0.112E+00  0.112E+00
 -3.811  0.113E+00  0.113E+00
 -3.801  0.113E+00  0.113E+00
 -3.791  0.113E+00  0.113E+00
 -3.781  0.114E+00  0.114E+00
 -3.771  0.114E+00  0.114E+00
 -3.761  0.115E+00  0.115E+00
 -3.751  0.115E+00  0.115E+00
 -3.741  0.116E+00  0.116E+00
 -3.731  0.116E+00  0.116E+00
 -3.721  0.117E+00  0.117E+00
 -3.711  0.117E+00  0.117E+00
 -3.701  0.118E+00  0.118E+00
 -3.691  0.118E+00  0.118E+00
 -3.681  0.119E+00  0.119E+00
 -3.671  0.119E+00  0.119E+00
 -3.661  0.119E+00  0.119E+00
 -3.651  0.120E+00  0.120E+00
 -3.641  0.120E+00  0.120E+00
 -3.631  0.121E+00  0.121E+00
 -3.621  0.121E+00  0.121E+00
 -3.611  0.121E+00  0.121E+00
 -3.601  0.122E+00  0.122E+00
 -3.591  0.122E+00  0.122E+00
 -3.581  0.123E+00  0.123E+00
 -3.571  0.124E+00  0.124E+00
 -3.561  0.124E+00  0.124E+00
 -3.551  0.125E+00  0.125E+00
 -3.541  0.126E+00  0.126E+00
 -3.531  0.126E+00  0.126E+00
 -3.521  0.127E+00  0.127E+00
 -3.511  0.128E+00  0.128E+00
 -3.501  0.129E+00  0.129E+00
 -3.491  0.129E+00  0.129E+00
 -3.481  0.130E+00  0.130E+00
 -3.471  0.131E+00  0.131E+00
 -3.461  0.132E+00  0.132E+00
 -3.451  0.133E+00  0.133E+00
 -3.441  0.134E+00  0.134E+00
 -3.431  0.135E+00  0.135E+00
 -3.421  0.136E+00  0.136E+00
 -3.411  0.137E+00  0.137E+00
 -3.401  0.138E+00  0.138E+00
 -3.391  0.139E+00  0.139E+00
 -3.381  0.140E+00  0.140E+00
 -3.371  0.142E+00  0.142E+00
 -3.361  0.143E+00  0.143E+00
 -3.351  0.145E+00  0.145E+00
 -3.341  0.146E+00  0.146E+00
 -3.331  0.148E+00  0.148E+00
 -3.321  0.149E+00  0.149E+00
 -3.311  0.151E+00  0.151E+00
 -3.301  0.153E+00  0.153E+00
 -3.291  0.154E+00  0.154E+00
 -3.281  0.156E+00  0.156E+00
 -3.271  0.157E+00  0.157E+00
 -3.261  0.158E+00  0.158E+00
 -3.251  0.159E+00  0.159E+00
 -3.241  0.160E+00  0.160E+00
 -3.231  0.161E+00  0.161E+00
 -3.221  0.161E+00  0.161E+00
 -3.211  0.162E+00  0.162E+00
 -3.201  0.162E+00  0.162E+00
 -3.191  0.162E+00  0.162E+00
 -3.181  0.162E+00  0.162E+00
 -3.171  0.161E+00  0.161E+00
 -3.161  0.161E+00  0.161E+00
 -3.151  0.160E+00  0.160E+00
 -3.141  0.159E+00  0.159E+00
 -3.131  0.157E+00  0.157E+00
 -3.121  0.156E+00  0.156E+00
 -3.111  0.154E+00  0.154E+00
 -3.101  0.152E+00  0.152E+00
 -3.091  0.151E+00  0.151E+00
 -3.081  0.148E+00  0.148E+00
 -3.071  0.146E+00  0.146E+00
 -3.061  0.144E+00  0.144E+00
 -3.051  0.142E+00  0.142E+00
 -3.041  0.139E+00  0.139E+00
 -3.031  0.137E+00  0.137E+00
 -3.021  0.134E+00  0.134E+00
 -3.011  0.131E+00  0.131E+00
 -3.001  0.129E+00  0.129E+00
 -2.991  0.126E+00  0.126E+00
 -2.981  0.124E+00  0.124E+00
 -2.971  0.121E+00  0.121E+00
 -2.961  0.118E+00  0.118E+00
 -2.951  0.116E+00  0.116E+00
 -2.941  0.113E+00  0.113E+00
 -2.931  0.110E+00  0.110E+00
 -2.921  0.107E+00  0.107E+00
 -2.911  0.105E+00  0.105E+00
 -2.901  0.102E+00  0.102E+00
 -2.891  0.993E-01  0.993E-01
 -2.881  0.966E-01  0.966E-01
 -2.871  0.938E-01  0.938E-01
 -2.861  0.910E-01  0.910E-01
 -2.851  0.883E-01  0.883E-01
 -2.841  0.855E-01  0.855E-01
 -2.831  0.827E-01  0.827E-01
 -2.821  0.798E-01  0.798E-01
 -2.811  0.770E-01  0.770E-01
 -2.801  0.741E-01  0.741E-01
 -2.791  0.713E-01  0.713E-01
 -2.781  0.684E-01  0.684E-01
 -2.771  0.655E-01  0.655E-01
 -2.761  0.625E-01  0.625E-01
 -2.751  0.596E-01  0.596E-01
 -2.741  0.567E-01  0.567E-01
 -2.731  0.537E-01  0.537E-01
 -2.721  0.508E-01  0.508E-01
 -2.711  0.478E-01  0.478E-01
 -2.701  0.449E-01  0.449E-01
 -2.691  0.420E-01  0.420E-01
 -2.681  0.391E-01  0.391E-01
 -2.671  0.363E-01  0.363E-01
 -2.661  0.335E-01  0.335E-01
 -2.651  0.309E-01  0.309E-01
 -2.641  0.282E-01  0.282E-01
 -2.631  0.257E-01  0.257E-01
 -2.621  0.233E-01  0.233E-01
 -2.611  0.210E-01  0.210E-01
 -2.601  0.188E-01  0.188E-01
 -2.591  0.167E-01  0.167E-01
 -2.581  0.148E-01  0.148E-01
 -2.571  0.130E-01  0.130E-01
 -2.561  0.114E-01  0.114E-01
 -2.551  0.986E-02  0.986E-02
 -2.541  0.849E-02  0.849E-02
 -2.531  0.726E-02  0.726E-02
 -2.521  0.617E-02  0.617E-02
 -2.511  0.520E-02  0.520E-02
 -2.501  0.435E-02  0.435E-02
 -2.491  0.361E-02  0.361E-02
 -2.481  0.297E-02  0.297E-02
 -2.471  0.243E-02  0.243E-02
 -2.461  0.197E-02  0.197E-02
 -2.451  0.158E-02  0.158E-02
 -2.441  0.126E-02  0.126E-02
 -2.431  0.995E-03  0.995E-03
 -2.421  0.779E-03  0.779E-03
 -2.411  0.605E-03  0.605E-03
 -2.401  0.466E-03  0.466E-03
 -2.391  0.355E-03  0.355E-03
 -2.381  0.269E-03  0.269E-03
 -2.371  0.201E-03  0.201E-03
 -2.361  0.150E-03  0.150E-03
 -2.351  0.110E-03  0.110E-03
 -2.341  0.803E-04  0.803E-04
 -2.331  0.580E-04  0.580E-04
 -2.321  0.415E-04  0.415E-04
 -2.311  0.295E-04  0.295E-04
 -2.301  0.207E-04  0.207E-04
 -2.291  0.144E-04  0.144E-04
 -2.281  0.993E-05  0.993E-05
 -2.271  0.678E-05  0.678E-05
 -2.261  0.459E-05  0.459E-05
 -2.251  0.307E-05  0.307E-05
 -2.241  0.204E-05  0.204E-05
 -2.231  0.134E-05  0.134E-05
 -2.221  0.871E-06  0.871E-06
 -2.211  0.561E-06  0.561E-06
 -2.201  0.358E-06  0.358E-06
 -2.191  0.226E-06  0.226E-06
 -2.181  0.141E-06  0.141E-06
 -2.171  0.876E-07  0.876E-07
 -2.161  0.537E-07  0.537E-07
 -2.151  0.326E-07  0.326E-07
 -2.141  0.196E-07  0.196E-07
 -2.131  0.117E-07  0.117E-07
 -2.121  0.688E-08  0.688E-08
 -2.111  0.401E-08  0.401E-08
 -2.101  0.232E-08  0.232E-08
 -2.091  0.133E-08  0.133E-08
 -2.081  0.751E-09  0.751E-09
 -2.071  0.421E-09  0.421E-09
 -2.061  0.233E-09  0.233E-09
 -2.051  0.128E-09  0.128E-09
 -2.041  0.696E-10  0.696E-10
 -2.031  0.375E-10  0.375E-10
 -2.021  0.199E-10  0.199E-10
 -2.011  0.105E-10  0.105E-10
 -2.001  0.548E-11  0.548E-11
 -1.991  0.283E-11  0.283E-11
 -1.981  0.144E-11  0.144E-11
 -1.971  0.724E-12  0.724E-12
 -1.961  0.361E-12  0.361E-12
 -1.951  0.175E-12  0.175E-12
 -1.941  0.837E-13  0.837E-13
 -1.931  0.345E-13  0.345E-13
 -1.921  0.159E-13  0.159E-13
 -1.911  0.690E-14  0.690E-14
 -1.901  0.225E-14  0.225E-14
 -1.891  0.372E-15  0.372E-15
 -1.881  0.409E-25  0.409E-25
 -1.871  0.000E+00  0.000E+00
 -1.861  0.000E+00  0.000E+00
 -1.851  0.000E+00  0.000E+00
 -1.841  0.000E+00  0.000E+00
 -1.831  0.000E+00  0.000E+00
 -1.821  0.000E+00  0.000E+00
 -1.811  0.000E+00  0.000E+00
 -1.801  0.000E+00  0.000E+00
 -1.791  0.000E+00  0.000E+00
 -1.781  0.000E+00  0.000E+00
 -1.771  0.000E+00  0.000E+00
 -1.761  0.000E+00  0.000E+00
 -1.751  0.000E+00  0.000E+00
 -1.741  0.000E+00  0.000E+00
 -1.731  0.000E+00  0.000E+00
 -1.721  0.000E+00  0.000E+00
 -1.711  0.000E+00  0.000E+00
 -1.701  0.000E+00  0.000E+00
 -1.691  0.000E+00  0.000E+00
 -1.681  0.000E+00  0.000E+00
 -1.671  0.000E+00  0.000E+00
 -1.661  0.000E+00  0.000E+00
 -1.651  0.000E+00  0.000E+00
 -1.641  0.000E+00  0.000E+00
 -1.631  0.000E+00  0.000E+00
 -1.621  0.000E+00  0.000E+00
 -1.611  0.000E+00  0.000E+00
 -1.601  0.000E+00  0.000E+00
 -1.591  0.000E+00  0.000E+00
 -1.581  0.000E+00  0.000E+00
 -1.571  0.000E+00  0.000E+00
 -1.561  0.000E+00  0.000E+00
 -1.551  0.000E+00  0.000E+00
 -1.541  0.000E+00  0.000E+00
 -1.531  0.000E+00  0.000E+00
 -1.521  0.000E+00  0.000E+00
 -1.511  0.000E+00  0.000E+00
 -1.501  0.000E+00  0.000E+00
 -1.491  0.000E+00  0.000E+00
 -1.481  0.000E+00  0.000E+00
 -1.471  0.000E+00  0.000E+00
 -1.461  0.000E+00  0.000E+00
 -1.451  0.000E+00  0.000E+00
 -1.441  0.000E+00  0.000E+00
 -1.431  0.000E+00  0.000E+00
 -1.421  0.000E+00  0.000E+00
 -1.411  0.000E+00  0.000E+00
 -1.401  0.000E+00  0.000E+00
 -1.391  0.000E+00  0.000E+00
 -1.381  0.000E+00  0.000E+00
 -1.371  0.000E+00  0.000E+00
 -1.361  0.000E+00  0.000E+00
 -1.351  0.000E+00  0.000E+00
 -1.341  0.000E+00  0.000E+00
 -1.331  0.000E+00  0.000E+00
 -1.321  0.000E+00  0.000E+00
 -1.311  0.000E+00  0.000E+00
 -1.301  0.000E+00  0.000E+00
 -1.291  0.000E+00  0.000E+00
 -1.281  0.000E+00  0.000E+00
 -1.271  0.000E+00  0.000E+00
 -1.261  0.000E+00  0.000E+00
 -1.251  0.000E+00  0.000E+00
 -1.241  0.000E+00  0.000E+00
 -1.231  0.000E+00  0.000E+00
 -1.221  0.000E+00  0.000E+00
 -1.211  0.000E+00  0.000E+00
 -1.201  0.000E+00  0.000E+00
 -1.191  0.000E+00  0.000E+00
 -1.181  0.000E+00  0.000E+00
 -1.171  0.000E+00  0.000E+00
 -1.161  0.000E+00  0.000E+00
 -1.151  0.000E+00  0.000E+00
 -1.141  0.000E+00  0.000E+00
 -1.131  0.000E+00  0.000E+00
 -1.121  0.000E+00  0.000E+00
 -1.111  0.000E+00  0.000E+00
 -1.101  0.000E+00  0.000E+00
 -1.091  0.000E+00  0.000E+00
 -1.081  0.000E+00  0.000E+00
 -1.071  0.000E+00  0.000E+00
 -1.061  0.000E+00  0.000E+00
 -1.051  0.000E+00  0.000E+00
 -1.041  0.000E+00  0.000E+00
 -1.031  0.000E+00  0.000E+00
 -1.021  0.000E+00  0.000E+00
 -1.011  0.000E+00  0.000E+00
 -1.001  0.000E+00  0.000E+00
 -0.991  0.000E+00  0.000E+00
 -0.981  0.000E+00  0.000E+00
 -0.971  0.000E+00  0.000E+00
 -0.961  0.000E+00  0.000E+00
 -0.951  0.000E+00  0.000E+00
 -0.941  0.000E+00  0.000E+00
 -0.931  0.000E+00  0.000E+00
 -0.921  0.000E+00  0.000E+00
 -0.911  0.000E+00  0.000E+00
 -0.901  0.000E+00  0.000E+00
 -0.891  0.000E+00  0.000E+00
 -0.881  0.000E+00  0.000E+00
 -0.871  0.000E+00  0.000E+00
 -0.861  0.000E+00  0.000E+00
 -0.851  0.000E+00  0.000E+00
 -0.841  0.000E+00  0.000E+00
 -0.831  0.000E+00  0.000E+00
 -0.821  0.000E+00  0.000E+00
 -0.811  0.000E+00  0.000E+00
 -0.801  0.000E+00  0.000E+00
 -0.791  0.000E+00  0.000E+00
 -0.781  0.000E+00  0.000E+00
 -0.771  0.000E+00  0.000E+00
 -0.761  0.000E+00  0.000E+00
 -0.751  0.000E+00  0.000E+00
 -0.741  0.000E+00  0.000E+00
 -0.731  0.000E+00  0.000E+00
 -0.721  0.000E+00  0.000E+00
 -0.711  0.000E+00  0.000E+00
 -0.701  0.000E+00  0.000E+00
 -0.691  0.000E+00  0.000E+00
 -0.681  0.000E+00  0.000E+00
 -0.671  0.000E+00  0.000E+00
 -0.661  0.000E+00  0.000E+00
 -0.651  0.000E+00  0.000E+00
 -0.641  0.000E+00  0.000E+00
 -0.631  0.000E+00  0.000E+00
 -0.621  0.000E+00  0.000E+00
 -0.611  0.000E+00  0.000E+00
 -0.601  0.000E+00  0.000E+00
 -0.591  0.000E+00  0.000E+00
 -0.581  0.000E+00  0.000E+00
 -0.571  0.000E+00  0.000E+00
 -0.561  0.000E+00  0.000E+00
 -0.551  0.000E+00  0.000E+00
 -0.541  0.000E+00  0.000E+00
 -0.531  0.000E+00  0.000E+00
 -0.521  0.000E+00  0.000E+00
 -0.511  0.000E+00  0.000E+00
 -0.501  0.000E+00  0.000E+00
 -0.491  0.000E+00  0.000E+00
 -0.481  0.000E+00  0.000E+00
 -0.471  0.000E+00  0.000E+00
 -0.461  0.000E+00  0.000E+00
 -0.451  0.000E+00  0.000E+00
 -0.441  0.000E+00  0.000E+00
 -0.431  0.000E+00  0.000E+00
 -0.421  0.000E+00  0.000E+00
 -0.411  0.000E+00  0.000E+00
 -0.401  0.000E+00  0.000E+00
 -0.391  0.000E+00  0.000E+00
 -0.381  0.000E+00  0.000E+00
 -0.371  0.000E+00  0.000E+00
 -0.361  0.000E+00  0.000E+00
 -0.351  0.000E+00  0.000E+00
 -0.341  0.000E+00  0.000E+00
 -0.331  0.000E+00  0.000E+00
 -0.321  0.000E+00  0.000E+00
 -0.311  0.000E+00  0.000E+00
 -0.301  0.000E+00  0.000E+00
 -0.291  0.000E+00  0.000E+00
 -0.281  0.000E+00  0.000E+00
 -0.271  0.000E+00  0.000E+00
 -0.261  0.000E+00  0.000E+00
 -0.251  0.000E+00  0.000E+00
 -0.241  0.000E+00  0.000E+00
 -0.231  0.000E+00  0.000E+00
 -0.221  0.000E+00  0.000E+00
 -0.211  0.000E+00  0.000E+00
 -0.201  0.000E+00  0.000E+00
 -0.191  0.000E+00  0.000E+00
 -0.181  0.000E+00  0.000E+00
 -0.171  0.000E+00  0.000E+00
 -0.161  0.000E+00  0.000E+00
 -0.151  0.000E+00  0.000E+00
 -0.141  0.000E+00  0.000E+00
 -0.131  0.000E+00  0.000E+00
 -0.121  0.000E+00  0.000E+00
 -0.111  0.000E+00  0.000E+00
 -0.101  0.000E+00  0.000E+00
 -0.091  0.000E+00  0.000E+00
 -0.081  0.000E+00  0.000E+00
 -0.071  0.000E+00  0.000E+00
 -0.061  0.000E+00  0.000E+00
 -0.051  0.000E+00  0.000E+00
 -0.041  0.000E+00  0.000E+00
 -0.031  0.000E+00  0.000E+00
 -0.021  0.000E+00  0.000E+00
 -0.011  0.000E+00  0.000E+00
 -0.001  0.000E+00  0.000E+00
  0.009  0.000E+00  0.000E+00
  0.019  0.000E+00  0.000E+00
  0.029  0.000E+00  0.000E+00
  0.039  0.000E+00  0.000E+00
  0.049  0.000E+00  0.000E+00
  0.059  0.000E+00  0.000E+00
  0.069  0.000E+00  0.000E+00
  0.079  0.000E+00  0.000E+00
  0.089  0.000E+00  0.000E+00
  0.099  0.000E+00  0.000E+00
  0.109  0.000E+00  0.000E+00
  0.119  0.000E+00  0.000E+00
  0.129  0.000E+00  0.000E+00
  0.139  0.000E+00  0.000E+00
  0.149  0.000E+00  0.000E+00
  0.159  0.000E+00  0.000E+00
  0.169  0.678E-14  0.678E-14
  0.179  0.415E-13  0.415E-13
  0.189  0.115E-12  0.115E-12
  0.199  0.283E-12  0.283E-12
  0.209  0.617E-12  0.617E-12
  0.219  0.144E-11  0.144E-11
  0.229  0.293E-11  0.293E-11
  0.239  0.597E-11  0.597E-11
  0.249  0.121E-10  0.121E-10
  0.259  0.240E-10  0.240E-10
  0.269  0.470E-10  0.470E-10
  0.279  0.910E-10  0.910E-10
  0.289  0.174E-09  0.174E-09
  0.299  0.331E-09  0.331E-09
  0.309  0.621E-09  0.621E-09
  0.319  0.115E-08  0.115E-08
  0.329  0.212E-08  0.212E-08
  0.339  0.385E-08  0.385E-08
  0.349  0.693E-08  0.693E-08
  0.359  0.124E-07  0.124E-07
  0.369  0.218E-07  0.218E-07
  0.379  0.380E-07  0.380E-07
  0.389  0.657E-07  0.657E-07
  0.399  0.112E-06  0.112E-06
  0.409  0.191E-06  0.191E-06
  0.419  0.320E-06  0.320E-06
  0.429  0.531E-06  0.531E-06
  0.439  0.872E-06  0.872E-06
  0.449  0.142E-05  0.142E-05
  0.459  0.229E-05  0.229E-05
  0.469  0.365E-05  0.365E-05
  0.479  0.577E-05  0.577E-05
  0.489  0.902E-05  0.902E-05
  0.499  0.140E-04  0.140E-04
  0.509  0.214E-04  0.214E-04
  0.519  0.326E-04  0.326E-04
  0.529  0.490E-04  0.490E-04
  0.539  0.731E-04  0.731E-04
  0.549  0.108E-03  0.108E-03
  0.559  0.158E-03  0.158E-03
  0.569  0.229E-03  0.229E-03
  0.579  0.328E-03  0.328E-03
  0.589  0.467E-03  0.467E-03
  0.599  0.657E-03  0.657E-03
  0.609  0.918E-03  0.918E-03
  0.619  0.127E-02  0.127E-02
  0.629  0.174E-02  0.174E-02
  0.639  0.237E-02  0.237E-02
  0.649  0.319E-02  0.319E-02
  0.659  0.426E-02  0.426E-02
  0.669  0.564E-02  0.564E-02
  0.679  0.740E-02  0.740E-02
  0.689  0.963E-02  0.963E-02
  0.699  0.124E-01  0.124E-01
  0.709  0.159E-01  0.159E-01
  0.719  0.202E-01  0.202E-01
  0.729  0.255E-01  0.255E-01
  0.739  0.318E-01  0.318E-01
  0.749  0.395E-01  0.395E-01
  0.759  0.486E-01  0.486E-01
  0.769  0.594E-01  0.594E-01
  0.779  0.720E-01  0.720E-01
  0.789  0.866E-01  0.866E-01
  0.799  0.104E+00  0.104E+00
  0.809  0.123E+00  0.123E+00
  0.819  0.145E+00  0.145E+00
  0.829  0.169E+00  0.169E+00
  0.839  0.197E+00  0.197E+00
  0.849  0.228E+00  0.228E+00
  0.859  0.261E+00  0.261E+00
  0.869  0.297E+00  0.297E+00
  0.879  0.337E+00  0.337E+00
  0.889  0.379E+00  0.379E+00
  0.899  0.424E+00  0.424E+00
  0.909  0.471E+00  0.471E+00
  0.919  0.521E+00  0.521E+00
  0.929  0.572E+00  0.572E+00
  0.939  0.624E+00  0.624E+00
  0.949  0.677E+00  0.677E+00
  0.959  0.730E+00  0.730E+00
  0.969  0.782E+00  0.782E+00
  0.979  0.833E+00  0.833E+00
  0.989  0.883E+00  0.883E+00
  0.999  0.930E+00  0.930E+00
  1.009  0.974E+00  0.974E+00
  1.019  0.101E+01  0.101E+01
  1.029  0.105E+01  0.105E+01
  1.039  0.108E+01  0.108E+01
  1.049  0.111E+01  0.111E+01
  1.059  0.113E+01  0.113E+01
  1.069  0.114E+01  0.114E+01
  1.079  0.115E+01  0.115E+01
  1.089  0.115E+01  0.115E+01
  1.099  0.115E+01  0.115E+01
  1.109  0.114E+01  0.114E+01
  1.119  0.113E+01  0.113E+01
  1.129  0.111E+01  0.111E+01
  1.139  0.109E+01  0.109E+01
  1.149  0.106E+01  0.106E+01
  1.159  0.103E+01  0.103E+01
  1.169  0.999E+00  0.999E+00
  1.179  0.966E+00  0.966E+00
  1.189  0.932E+00  0.932E+00
  1.199  0.897E+00  0.897E+00
  1.209  0.862E+00  0.862E+00
  1.219  0.828E+00  0.828E+00
  1.229  0.794E+00  0.794E+00
  1.239  0.761E+00  0.761E+00
  1.249  0.729E+00  0.729E+00
  1.259  0.698E+00  0.698E+00
  1.269  0.669E+00  0.669E+00
  1.279  0.642E+00  0.642E+00
  1.289  0.616E+00  0.616E+00
  1.299  0.592E+00  0.592E+00
  1.309  0.569E+00  0.569E+00
  1.319  0.548E+00  0.548E+00
  1.329  0.528E+00  0.528E+00
  1.339  0.510E+00  0.510E+00
  1.349  0.493E+00  0.493E+00
  1.359  0.477E+00  0.477E+00
  1.369  0.463E+00  0.463E+00
  1.379  0.449E+00  0.449E+00
  1.389  0.436E+00  0.436E+00
  1.399  0.425E+00  0.425E+00
  1.409  0.413E+00  0.413E+00
  1.419  0.403E+00  0.403E+00
  1.429  0.393E+00  0.393E+00
  1.439  0.384E+00  0.384E+00
  1.449  0.375E+00  0.375E+00
  1.459  0.366E+00  0.366E+00
  1.469  0.358E+00  0.358E+00
  1.479  0.350E+00  0.350E+00
  1.489  0.342E+00  0.342E+00
  1.499  0.334E+00  0.334E+00
  1.509  0.327E+00  0.327E+00
  1.519  0.320E+00  0.320E+00
  1.529  0.313E+00  0.313E+00
  1.539  0.307E+00  0.307E+00
  1.549  0.301E+00  0.301E+00
  1.559  0.295E+00  0.295E+00
  1.569  0.290E+00  0.290E+00
  1.579  0.284E+00  0.284E+00
  1.589  0.279E+00  0.279E+00
  1.599  0.275E+00  0.275E+00
  1.609  0.270E+00  0.270E+00
  1.619  0.266E+00  0.266E+00
  1.629  0.262E+00  0.262E+00
  1.639  0.258E+00  0.258E+00
  1.649  0.255E+00  0.255E+00
  1.659  0.251E+00  0.251E+00
  1.669  0.247E+00  0.247E+00
  1.679  0.244E+00  0.244E+00
  1.689  0.240E+00  0.240E+00
  1.699  0.236E+00  0.236E+00
  1.709  0.233E+00  0.233E+00
  1.719  0.229E+00  0.229E+00
  1.729  0.225E+00  0.225E+00
  1.739  0.221E+00  0.221E+00
  1.749  0.218E+00  0.218E+00
  1.759  0.214E+00  0.214E+00
  1.769  0.211E+00  0.211E+00
  1.779  0.207E+00  0.207E+00
  1.789  0.204E+00  0.204E+00
  1.799  0.201E+00  0.201E+00
  1.809  0.197E+00  0.197E+00
  1.819  0.195E+00  0.195E+00
  1.829  0.192E+00  0.192E+00
  1.839  0.189E+00  0.189E+00
  1.849  0.187E+00  0.187E+00
  1.859  0.184E+00  0.184E+00
  1.869  0.182E+00  0.182E+00
  1.879  0.180E+00  0.180E+00
  1.889  0.178E+00  0.178E+00
  1.899  0.177E+00  0.177E+00
  1.909  0.175E+00  0.175E+00
  1.919  0.173E+00  0.173E+00
  1.929  0.172E+00  0.172E+00
  1.939  0.170E+00  0.170E+00
  1.949  0.169E+00  0.169E+00
  1.959  0.167E+00  0.167E+00
  1.969  0.165E+00  0.165E+00
  1.979  0.164E+00  0.164E+00
  1.989  0.162E+00  0.162E+00
  1.999  0.160E+00  0.160E+00
  2.009  0.158E+00  0.158E+00
  2.019  0.155E+00  0.155E+00
  2.029  0.153E+00  0.153E+00
  2.039  0.151E+00  0.151E+00
  2.049  0.148E+00  0.148E+00
  2.059  0.146E+00  0.146E+00
  2.069  0.143E+00  0.143E+00
  2.079  0.141E+00  0.141E+00
  2.089  0.139E+00  0.139E+00
  2.099  0.137E+00  0.137E+00
  2.109  0.135E+00  0.135E+00
  2.119  0.133E+00  0.133E+00
  2.129  0.132E+00  0.132E+00
  2.139  0.130E+00  0.130E+00
  2.149  0.129E+00  0.129E+00
  2.159  0.128E+00  0.128E+00
  2.169  0.127E+00  0.127E+00
  2.179  0.126E+00  0.126E+00
  2.189  0.125E+00  0.125E+00
  2.199  0.124E+00  0.124E+00
  2.209  0.123E+00  0.123E+00
  2.219  0.122E+00  0.122E+00
  2.229  0.121E+00  0.121E+00
  2.239  0.120E+00  0.120E+00
  2.249  0.119E+00  0.119E+00
  2.259  0.119E+00  0.119E+00
  2.269  0.118E+00  0.118E+00
  2.279  0.117E+00  0.117E+00
  2.289  0.116E+00  0.116E+00
  2.299  0.115E+00  0.115E+00
  2.309  0.114E+00  0.114E+00
  2.319  0.113E+00  0.113E+00
  2.329  0.112E+00  0.112E+00
  2.339  0.111E+00  0.111E+00
  2.349  0.110E+00  0.110E+00
  2.359  0.109E+00  0.109E+00
  2.369  0.108E+00  0.108E+00
  2.379  0.106E+00  0.106E+00
  2.389  0.105E+00  0.105E+00
  2.399  0.103E+00  0.103E+00
  2.409  0.102E+00  0.102E+00
  2.419  0.100E+00  0.100E+00
  2.429  0.985E-01  0.985E-01
  2.439  0.969E-01  0.969E-01
  2.449  0.952E-01  0.952E-01
  2.459  0.937E-01  0.937E-01
  2.469  0.921E-01  0.921E-01
  2.479  0.907E-01  0.907E-01
  2.489  0.893E-01  0.893E-01
  2.499  0.880E-01  0.880E-01
  2.509  0.869E-01  0.869E-01
  2.519  0.859E-01  0.859E-01
  2.529  0.851E-01  0.851E-01
  2.539  0.844E-01  0.844E-01
  2.549  0.839E-01  0.839E-01
  2.559  0.836E-01  0.836E-01
  2.569  0.834E-01  0.834E-01
  2.579  0.833E-01  0.833E-01
  2.589  0.833E-01  0.833E-01
  2.599  0.835E-01  0.835E-01
  2.609  0.836E-01  0.836E-01
  2.619  0.838E-01  0.838E-01
  2.629  0.840E-01  0.840E-01
  2.639  0.841E-01  0.841E-01
  2.649  0.842E-01  0.842E-01
  2.659  0.841E-01  0.841E-01
  2.669  0.839E-01  0.839E-01
  2.679  0.835E-01  0.835E-01
  2.689  0.829E-01  0.829E-01
  2.699  0.821E-01  0.821E-01
  2.709  0.811E-01  0.811E-01
  2.719  0.800E-01  0.800E-01
  2.729  0.787E-01  0.787E-01
  2.739  0.773E-01  0.773E-01
  2.749  0.758E-01  0.758E-01
  2.759  0.742E-01  0.742E-01
  2.769  0.726E-01  0.726E-01
  2.779  0.710E-01  0.710E-01
  2.789  0.695E-01  0.695E-01
  2.799  0.680E-01  0.680E-01
  2.809  0.667E-01  0.667E-01
  2.819  0.654E-01  0.654E-01
  2.829  0.643E-01  0.643E-01
  2.839  0.634E-01  0.634E-01
  2.849  0.625E-01  0.625E-01
  2.859  0.618E-01  0.618E-01
  2.869  0.612E-01  0.612E-01
  2.879  0.607E-01  0.607E-01
  2.889  0.602E-01  0.602E-01
  2.899  0.599E-01  0.599E-01
  2.909  0.596E-01  0.596E-01
  2.919  0.593E-01  0.593E-01
  2.929  0.591E-01  0.591E-01
  2.939  0.589E-01  0.589E-01
  2.949  0.587E-01  0.587E-01
  2.959  0.586E-01  0.586E-01
  2.969  0.585E-01  0.585E-01
  2.979  0.585E-01  0.585E-01
  2.989  0.585E-01  0.585E-01
  2.999  0.586E-01  0.586E-01
  3.009  0.587E-01  0.587E-01
  3.019  0.588E-01  0.588E-01
  3.029  0.589E-01  0.589E-01
  3.039  0.590E-01  0.590E-01
  3.049  0.592E-01  0.592E-01
  3.059  0.592E-01  0.592E-01
  3.069  0.593E-01  0.593E-01
  3.079  0.592E-01  0.592E-01
  3.089  0.590E-01  0.590E-01
  3.099  0.588E-01  0.588E-01
  3.109  0.584E-01  0.584E-01
  3.119  0.579E-01  0.579E-01
  3.129  0.573E-01  0.573E-01
  3.139  0.566E-01  0.566E-01
  3.149  0.558E-01  0.558E-01
  3.159  0.549E-01  0.549E-01
  3.169  0.539E-01  0.539E-01
  3.179  0.529E-01  0.529E-01
  3.189  0.519E-01  0.519E-01
  3.199  0.509E-01  0.509E-01
  3.209  0.499E-01  0.499E-01
  3.219  0.491E-01  0.491E-01
  3.229  0.483E-01  0.483E-01
  3.239  0.476E-01  0.476E-01
  3.249  0.471E-01  0.471E-01
  3.259  0.467E-01  0.467E-01
  3.269  0.465E-01  0.465E-01
  3.279  0.465E-01  0.465E-01
  3.289  0.467E-01  0.467E-01
  3.299  0.470E-01  0.470E-01
  3.309  0.475E-01  0.475E-01
  3.319  0.481E-01  0.481E-01
  3.329  0.489E-01  0.489E-01
  3.339  0.498E-01  0.498E-01
  3.349  0.508E-01  0.508E-01
  3.359  0.519E-01  0.519E-01
  3.369  0.530E-01  0.530E-01
  3.379  0.542E-01  0.542E-01
  3.389  0.553E-01  0.553E-01
  3.399  0.565E-01  0.565E-01
  3.409  0.576E-01  0.576E-01
  3.419  0.587E-01  0.587E-01
  3.429  0.598E-01  0.598E-01
  3.439  0.608E-01  0.608E-01
  3.449  0.618E-01  0.618E-01
  3.459  0.626E-01  0.626E-01
  3.469  0.635E-01  0.635E-01
  3.479  0.642E-01  0.642E-01
  3.489  0.649E-01  0.649E-01
  3.499  0.656E-01  0.656E-01
  3.509  0.661E-01  0.661E-01
  3.519  0.667E-01  0.667E-01
  3.529  0.671E-01  0.671E-01
  3.539  0.675E-01  0.675E-01
  3.549  0.679E-01  0.679E-01
  3.559  0.681E-01  0.681E-01
  3.569  0.683E-01  0.683E-01
  3.579  0.685E-01  0.685E-01
  3.589  0.685E-01  0.685E-01
  3.599  0.685E-01  0.685E-01
  3.609  0.684E-01  0.684E-01
  3.619  0.682E-01  0.682E-01
  3.629  0.680E-01  0.680E-01
  3.639  0.677E-01  0.677E-01
  3.649  0.674E-01  0.674E-01
  3.659  0.670E-01  0.670E-01
  3.669  0.665E-01  0.665E-01
  3.679  0.661E-01  0.661E-01
  3.689  0.656E-01  0.656E-01
  3.699  0.651E-01  0.651E-01
  3.709  0.646E-01  0.646E-01
  3.719  0.642E-01  0.642E-01
  3.729  0.637E-01  0.637E-01
  3.739  0.633E-01  0.633E-01
  3.749  0.630E-01  0.630E-01
  3.759  0.627E-01  0.627E-01
  3.769  0.625E-01  0.625E-01
  3.779  0.623E-01  0.623E-01
  3.789  0.622E-01  0.622E-01
  3.799  0.623E-01  0.623E-01
  3.809  0.624E-01  0.624E-01
  3.819  0.626E-01  0.626E-01
  3.829  0.629E-01  0.629E-01
  3.839  0.633E-01  0.633E-01
  3.849  0.639E-01  0.639E-01
  3.859  0.644E-01  0.644E-01
  3.869  0.651E-01  0.651E-01
  3.879  0.658E-01  0.658E-01
  3.889  0.665E-01  0.665E-01
  3.899  0.672E-01  0.672E-01
  3.909  0.679E-01  0.679E-01
  3.919  0.686E-01  0.686E-01
  3.929  0.692E-01  0.692E-01
  3.939  0.698E-01  0.698E-01
  3.949  0.702E-01  0.702E-01
  3.959  0.705E-01  0.705E-01
  3.969  0.708E-01  0.708E-01
  3.979  0.708E-01  0.708E-01
  3.989  0.708E-01  0.708E-01
  3.999  0.706E-01  0.706E-01
  4.009  0.702E-01  0.702E-01
  4.019  0.697E-01  0.697E-01
  4.029  0.691E-01  0.691E-01
  4.039  0.684E-01  0.684E-01
  4.049  0.676E-01  0.676E-01
  4.059  0.667E-01  0.667E-01
  4.069  0.658E-01  0.658E-01
  4.079  0.648E-01  0.648E-01
  4.089  0.638E-01  0.638E-01
  4.099  0.628E-01  0.628E-01
  4.109  0.619E-01  0.619E-01
  4.119  0.609E-01  0.609E-01
  4.129  0.601E-01  0.601E-01
  4.139  0.593E-01  0.593E-01
  4.149  0.586E-01  0.586E-01
  4.159  0.580E-01  0.580E-01
  4.169  0.575E-01  0.575E-01
  4.179  0.571E-01  0.571E-01
  4.189  0.568E-01  0.568E-01
  4.199  0.565E-01  0.565E-01
  4.209  0.563E-01  0.563E-01
  4.219  0.563E-01  0.563E-01
  4.229  0.562E-01  0.562E-01
  4.239  0.562E-01  0.562E-01
  4.249  0.563E-01  0.563E-01
  4.259  0.564E-01  0.564E-01
  4.269  0.565E-01  0.565E-01
  4.279  0.566E-01  0.566E-01
  4.289  0.568E-01  0.568E-01
  4.299  0.569E-01  0.569E-01
  4.309  0.570E-01  0.570E-01
  4.319  0.572E-01  0.572E-01
  4.329  0.573E-01  0.573E-01
  4.339  0.574E-01  0.574E-01
  4.349  0.575E-01  0.575E-01
  4.359  0.575E-01  0.575E-01
  4.369  0.576E-01  0.576E-01
  4.379  0.576E-01  0.576E-01
  4.389  0.576E-01  0.576E-01
  4.399  0.575E-01  0.575E-01
  4.409  0.574E-01  0.574E-01
  4.419  0.573E-01  0.573E-01
  4.429  0.571E-01  0.571E-01
  4.439  0.569E-01  0.569E-01
  4.449  0.566E-01  0.566E-01
  4.459  0.563E-01  0.563E-01
  4.469  0.559E-01  0.559E-01
  4.479  0.554E-01  0.554E-01
  4.489  0.549E-01  0.549E-01
  4.499  0.543E-01  0.543E-01
  4.509  0.537E-01  0.537E-01
  4.519  0.531E-01  0.531E-01
  4.529  0.524E-01  0.524E-01
  4.539  0.518E-01  0.518E-01
  4.549  0.511E-01  0.511E-01
  4.559  0.504E-01  0.504E-01
  4.569  0.498E-01  0.498E-01
  4.579  0.491E-01  0.491E-01
  4.589  0.485E-01  0.485E-01
  4.599  0.479E-01  0.479E-01
  4.609  0.474E-01  0.474E-01
  4.619  0.469E-01  0.469E-01
  4.629  0.465E-01  0.465E-01
  4.639  0.460E-01  0.460E-01
  4.649  0.457E-01  0.457E-01
  4.659  0.453E-01  0.453E-01
  4.669  0.449E-01  0.449E-01
  4.679  0.446E-01  0.446E-01
  4.689  0.443E-01  0.443E-01
  4.699  0.439E-01  0.439E-01
  4.709  0.436E-01  0.436E-01
  4.719  0.433E-01  0.433E-01
  4.729  0.429E-01  0.429E-01
  4.739  0.426E-01  0.426E-01
  4.749  0.423E-01  0.423E-01
  4.759  0.420E-01  0.420E-01
  4.769  0.416E-01  0.416E-01
  4.779  0.413E-01  0.413E-01
  4.789  0.410E-01  0.410E-01
  4.799  0.407E-01  0.407E-01
  4.809  0.404E-01  0.404E-01
  4.819  0.401E-01  0.401E-01
  4.829  0.398E-01  0.398E-01
  4.839  0.395E-01  0.395E-01
  4.849  0.393E-01  0.393E-01
  4.859  0.390E-01  0.390E-01
  4.869  0.388E-01  0.388E-01
  4.879  0.386E-01  0.386E-01
  4.889  0.384E-01  0.384E-01
  4.899  0.382E-01  0.382E-01
  4.909  0.380E-01  0.380E-01
  4.919  0.379E-01  0.379E-01
  4.929  0.377E-01  0.377E-01
  4.939  0.376E-01  0.376E-01
  4.949  0.375E-01  0.375E-01
  4.959  0.374E-01  0.374E-01
  4.969  0.374E-01  0.374E-01
  4.979  0.373E-01  0.373E-01
  4.989  0.371E-01  0.371E-01
  4.999  0.370E-01  0.370E-01
  5.009  0.368E-01  0.368E-01
  5.019  0.365E-01  0.365E-01
  5.029  0.362E-01  0.362E-01
  5.039  0.359E-01  0.359E-01
  5.049  0.354E-01  0.354E-01
  5.059  0.349E-01  0.349E-01
  5.069  0.343E-01  0.343E-01
  5.079  0.337E-01  0.337E-01
  5.089  0.330E-01  0.330E-01
  5.099  0.322E-01  0.322E-01
  5.109  0.314E-01  0.314E-01
  5.119  0.306E-01  0.306E-01
  5.129  0.298E-01  0.298E-01
  5.139  0.290E-01  0.290E-01
  5.149  0.282E-01  0.282E-01
  5.159  0.274E-01  0.274E-01
  5.169  0.267E-01  0.267E-01
  5.179  0.260E-01  0.260E-01
  5.189  0.254E-01  0.254E-01
  5.199  0.248E-01  0.248E-01
  5.209  0.243E-01  0.243E-01
  5.219  0.239E-01  0.239E-01
  5.229  0.235E-01  0.235E-01
  5.239  0.231E-01  0.231E-01
  5.249  0.228E-01  0.228E-01
  5.259  0.225E-01  0.225E-01
  5.269  0.223E-01  0.223E-01
  5.279  0.221E-01  0.221E-01
  5.289  0.220E-01  0.220E-01
  5.299  0.218E-01  0.218E-01
  5.309  0.217E-01  0.217E-01
  5.319  0.216E-01  0.216E-01
  5.329  0.215E-01  0.215E-01
  5.339  0.214E-01  0.214E-01
  5.349  0.213E-01  0.213E-01
  5.359  0.212E-01  0.212E-01
  5.369  0.211E-01  0.211E-01
  5.379  0.209E-01  0.209E-01
  5.389  0.208E-01  0.208E-01
  5.399  0.206E-01  0.206E-01
  5.409  0.204E-01  0.204E-01
  5.419  0.202E-01  0.202E-01
  5.429  0.200E-01  0.200E-01
  5.439  0.197E-01  0.197E-01
  5.449  0.194E-01  0.194E-01
  5.459  0.191E-01  0.191E-01
  5.469  0.188E-01  0.188E-01
  5.479  0.185E-01  0.185E-01
  5.489  0.181E-01  0.181E-01
  5.499  0.177E-01  0.177E-01
  5.509  0.173E-01  0.173E-01
  5.519  0.169E-01  0.169E-01
  5.529  0.165E-01  0.165E-01
  5.539  0.161E-01  0.161E-01
  5.549  0.157E-01  0.157E-01
  5.559  0.152E-01  0.152E-01
  5.569  0.148E-01  0.148E-01
  5.579  0.144E-01  0.144E-01
  5.589  0.139E-01  0.139E-01
  5.599  0.135E-01  0.135E-01
  5.609  0.130E-01  0.130E-01
  5.619  0.126E-01  0.126E-01
  5.629  0.121E-01  0.121E-01
  5.639  0.117E-01  0.117E-01
  5.649  0.112E-01  0.112E-01
  5.659  0.108E-01  0.108E-01
  5.669  0.104E-01  0.104E-01
  5.679  0.994E-02  0.994E-02
  5.689  0.955E-02  0.955E-02
  5.699  0.918E-02  0.918E-02
  5.709  0.883E-02  0.883E-02
  5.719  0.850E-02  0.850E-02
  5.729  0.820E-02  0.820E-02
  5.739  0.793E-02  0.793E-02
  5.749  0.768E-02  0.768E-02
  5.759  0.747E-02  0.747E-02
  5.769  0.728E-02  0.728E-02
  5.779  0.712E-02  0.712E-02
  5.789  0.698E-02  0.698E-02
  5.799  0.687E-02  0.687E-02
  5.809  0.677E-02  0.677E-02
  5.819  0.670E-02  0.670E-02
  5.829  0.664E-02  0.664E-02
  5.839  0.659E-02  0.659E-02
  5.849  0.655E-02  0.655E-02
  5.859  0.651E-02  0.651E-02
  5.869  0.647E-02  0.647E-02
  5.879  0.643E-02  0.643E-02
  5.889  0.638E-02  0.638E-02
  5.899  0.632E-02  0.632E-02
  5.909  0.625E-02  0.625E-02
  5.919  0.617E-02  0.617E-02
  5.929  0.606E-02  0.606E-02
  5.939  0.594E-02  0.594E-02
  5.949  0.581E-02  0.581E-02
  5.959  0.565E-02  0.565E-02
  5.969  0.547E-02  0.547E-02
  5.979  0.528E-02  0.528E-02
  5.989  0.508E-02  0.508E-02
  5.999  0.486E-02  0.486E-02
  6.009  0.463E-02  0.463E-02
  6.019  0.439E-02  0.439E-02
  6.029  0.416E-02  0.416E-02
  6.039  0.392E-02  0.392E-02
  6.049  0.368E-02  0.368E-02
  6.059  0.345E-02  0.345E-02
  6.069  0.322E-02  0.322E-02
  6.079  0.300E-02  0.300E-02
  6.089  0.279E-02  0.279E-02
  6.099  0.260E-02  0.260E-02
  6.109  0.241E-02  0.241E-02
  6.119  0.224E-02  0.224E-02
  6.129  0.208E-02  0.208E-02
  6.139  0.193E-02  0.193E-02
  6.149  0.179E-02  0.179E-02
  6.159  0.166E-02  0.166E-02
  6.169  0.154E-02  0.154E-02
  6.179  0.143E-02  0.143E-02
  6.189  0.132E-02  0.132E-02
  6.199  0.123E-02  0.123E-02
  6.209  0.113E-02  0.113E-02
  6.219  0.105E-02  0.105E-02
  6.229  0.966E-03  0.966E-03
  6.239  0.888E-03  0.888E-03
  6.249  0.814E-03  0.814E-03
  6.259  0.744E-03  0.744E-03
  6.269  0.678E-03  0.678E-03
  6.279  0.614E-03  0.614E-03
  6.289  0.554E-03  0.554E-03
  6.299  0.497E-03  0.497E-03
  6.309  0.444E-03  0.444E-03
  6.319  0.394E-03  0.394E-03
  6.329  0.347E-03  0.347E-03
  6.339  0.304E-03  0.304E-03
  6.349  0.265E-03  0.265E-03
  6.359  0.229E-03  0.229E-03
  6.369  0.196E-03  0.196E-03
  6.379  0.167E-03  0.167E-03
  6.389  0.141E-03  0.141E-03
  6.399  0.118E-03  0.118E-03
  6.409  0.984E-04  0.984E-04
  6.419  0.811E-04  0.811E-04
  6.429  0.664E-04  0.664E-04
  6.439  0.539E-04  0.539E-04
  6.449  0.434E-04  0.434E-04
  6.459  0.347E-04  0.347E-04
  6.469  0.276E-04  0.276E-04
  6.479  0.218E-04  0.218E-04
  6.489  0.173E-04  0.173E-04
  6.499  0.138E-04  0.138E-04
  6.509  0.113E-04  0.113E-04
  6.519  0.953E-05  0.953E-05
  6.529  0.858E-05  0.858E-05
  6.539  0.836E-05  0.836E-05
  6.549  0.887E-05  0.887E-05
  6.559  0.102E-04  0.102E-04
  6.569  0.123E-04  0.123E-04
  6.579  0.153E-04  0.153E-04
  6.589  0.194E-04  0.194E-04
  6.599  0.246E-04  0.246E-04
  6.609  0.312E-04  0.312E-04
  6.619  0.394E-04  0.394E-04
  6.629  0.492E-04  0.492E-04
  6.639  0.610E-04  0.610E-04
  6.649  0.748E-04  0.748E-04
  6.659  0.908E-04  0.908E-04
  6.669  0.109E-03  0.109E-03
  6.679  0.130E-03  0.130E-03
  6.689  0.152E-03  0.152E-03
  6.699  0.177E-03  0.177E-03
  6.709  0.204E-03  0.204E-03
  6.719  0.232E-03  0.232E-03
  6.729  0.261E-03  0.261E-03
  6.739  0.291E-03  0.291E-03
  6.749  0.321E-03  0.321E-03
  6.759  0.349E-03  0.349E-03
  6.769  0.377E-03  0.377E-03
  6.779  0.402E-03  0.402E-03
  6.789  0.424E-03  0.424E-03
  6.799  0.443E-03  0.443E-03
  6.809  0.458E-03  0.458E-03
  6.819  0.468E-03  0.468E-03
  6.829  0.473E-03  0.473E-03
  6.839  0.474E-03  0.474E-03
  6.849  0.470E-03  0.470E-03
  6.859  0.461E-03  0.461E-03
  6.869  0.449E-03  0.449E-03
  6.879  0.433E-03  0.433E-03
  6.889  0.415E-03  0.415E-03
  6.899  0.395E-03  0.395E-03
  6.909  0.375E-03  0.375E-03
  6.919  0.356E-03  0.356E-03
  6.929  0.339E-03  0.339E-03
  6.939  0.326E-03  0.326E-03
  6.949  0.318E-03  0.318E-03
  6.959  0.317E-03  0.317E-03
  6.969  0.325E-03  0.325E-03
  6.979  0.342E-03  0.342E-03
  6.989  0.370E-03  0.370E-03
  6.999  0.412E-03  0.412E-03
  7.009  0.467E-03  0.467E-03
  7.019  0.537E-03  0.537E-03
  7.029  0.624E-03  0.624E-03
  7.039  0.728E-03  0.728E-03
  7.049  0.848E-03  0.848E-03
  7.059  0.986E-03  0.986E-03
  7.069  0.114E-02  0.114E-02
  7.079  0.131E-02  0.131E-02
  7.089  0.150E-02  0.150E-02
  7.099  0.169E-02  0.169E-02
  7.109  0.190E-02  0.190E-02
  7.119  0.211E-02  0.211E-02
  7.129  0.233E-02  0.233E-02
  7.139  0.255E-02  0.255E-02
  7.149  0.276E-02  0.276E-02
  7.159  0.296E-02  0.296E-02
  7.169  0.316E-02  0.316E-02
  7.179  0.333E-02  0.333E-02
  7.189  0.349E-02  0.349E-02
  7.199  0.363E-02  0.363E-02
  7.209  0.374E-02  0.374E-02
  7.219  0.383E-02  0.383E-02
  7.229  0.390E-02  0.390E-02
  7.239  0.394E-02  0.394E-02
  7.249  0.396E-02  0.396E-02
  7.259  0.395E-02  0.395E-02
  7.269  0.393E-02  0.393E-02
  7.279  0.388E-02  0.388E-02
  7.289  0.383E-02  0.383E-02
  7.299  0.377E-02  0.377E-02
  7.309  0.371E-02  0.371E-02
  7.319  0.364E-02  0.364E-02
  7.329  0.359E-02  0.359E-02
  7.339  0.355E-02  0.355E-02
  7.349  0.352E-02  0.352E-02
  7.359  0.351E-02  0.351E-02
  7.369  0.353E-02  0.353E-02
  7.379  0.358E-02  0.358E-02
  7.389  0.366E-02  0.366E-02
  7.399  0.377E-02  0.377E-02
  7.409  0.391E-02  0.391E-02
  7.419  0.409E-02  0.409E-02
  7.429  0.430E-02  0.430E-02
  7.439  0.454E-02  0.454E-02
  7.449  0.481E-02  0.481E-02
  7.459  0.511E-02  0.511E-02
  7.469  0.544E-02  0.544E-02
  7.479  0.580E-02  0.580E-02
  7.489  0.618E-02  0.618E-02
  7.499  0.658E-02  0.658E-02
  7.509  0.699E-02  0.699E-02
  7.519  0.742E-02  0.742E-02
  7.529  0.787E-02  0.787E-02
  7.539  0.832E-02  0.832E-02
  7.549  0.878E-02  0.878E-02
  7.559  0.925E-02  0.925E-02
  7.569  0.971E-02  0.971E-02
  7.579  0.102E-01  0.102E-01
  7.589  0.106E-01  0.106E-01
  7.599  0.111E-01  0.111E-01
  7.609  0.115E-01  0.115E-01
  7.619  0.120E-01  0.120E-01
  7.629  0.124E-01  0.124E-01
  7.639  0.128E-01  0.128E-01
  7.649  0.133E-01  0.133E-01
  7.659  0.137E-01  0.137E-01
  7.669  0.142E-01  0.142E-01
  7.679  0.148E-01  0.148E-01
  7.689  0.154E-01  0.154E-01
  7.699  0.160E-01  0.160E-01
  7.709  0.168E-01  0.168E-01
  7.719  0.178E-01  0.178E-01
  7.729  0.188E-01  0.188E-01
  7.739  0.201E-01  0.201E-01
  7.749  0.215E-01  0.215E-01
  7.759  0.231E-01  0.231E-01
  7.769  0.250E-01  0.250E-01
  7.779  0.271E-01  0.271E-01
  7.789  0.295E-01  0.295E-01
  7.799  0.320E-01  0.320E-01
  7.809  0.349E-01  0.349E-01
  7.819  0.380E-01  0.380E-01
  7.829  0.412E-01  0.412E-01
  7.839  0.447E-01  0.447E-01
  7.849  0.484E-01  0.484E-01
  7.859  0.521E-01  0.521E-01
  7.869  0.559E-01  0.559E-01
  7.879  0.598E-01  0.598E-01
  7.889  0.637E-01  0.637E-01
  7.899  0.675E-01  0.675E-01
  7.909  0.712E-01  0.712E-01
  7.919  0.747E-01  0.747E-01
  7.929  0.781E-01  0.781E-01
  7.939  0.812E-01  0.812E-01
  7.949  0.842E-01  0.842E-01
  7.959  0.868E-01  0.868E-01
  7.969  0.893E-01  0.893E-01
  7.979  0.915E-01  0.915E-01
  7.989  0.936E-01  0.936E-01
  7.999  0.955E-01  0.955E-01
  8.009  0.972E-01  0.972E-01
  8.019  0.989E-01  0.989E-01
  8.029  0.101E+00  0.101E+00
  8.039  0.102E+00  0.102E+00
  8.049  0.104E+00  0.104E+00
  8.059  0.106E+00  0.106E+00
  8.069  0.108E+00  0.108E+00
  8.079  0.111E+00  0.111E+00
  8.089  0.113E+00  0.113E+00
  8.099  0.116E+00  0.116E+00
  8.109  0.119E+00  0.119E+00
  8.119  0.122E+00  0.122E+00
  8.129  0.125E+00  0.125E+00
  8.139  0.129E+00  0.129E+00
  8.149  0.132E+00  0.132E+00
  8.159  0.135E+00  0.135E+00
  8.169  0.139E+00  0.139E+00
  8.179  0.142E+00  0.142E+00
  8.189  0.145E+00  0.145E+00
  8.199  0.147E+00  0.147E+00
  8.209  0.150E+00  0.150E+00
  8.219  0.152E+00  0.152E+00
  8.229  0.154E+00  0.154E+00
  8.239  0.156E+00  0.156E+00
  8.249  0.158E+00  0.158E+00
  8.259  0.159E+00  0.159E+00
  8.269  0.161E+00  0.161E+00
  8.279  0.162E+00  0.162E+00
  8.289  0.163E+00  0.163E+00
  8.299  0.164E+00  0.164E+00
  8.309  0.165E+00  0.165E+00
  8.319  0.166E+00  0.166E+00
  8.329  0.167E+00  0.167E+00
  8.339  0.168E+00  0.168E+00
  8.349  0.169E+00  0.169E+00
  8.359  0.170E+00  0.170E+00
  8.369  0.171E+00  0.171E+00
  8.379  0.172E+00  0.172E+00
  8.389  0.174E+00  0.174E+00
  8.399  0.175E+00  0.175E+00
  8.409  0.176E+00  0.176E+00
  8.419  0.177E+00  0.177E+00
  8.429  0.179E+00  0.179E+00
  8.439  0.181E+00  0.181E+00
  8.449  0.182E+00  0.182E+00
  8.459  0.184E+00  0.184E+00
  8.469  0.186E+00  0.186E+00
  8.479  0.189E+00  0.189E+00
  8.489  0.191E+00  0.191E+00
  8.499  0.194E+00  0.194E+00
  8.509  0.197E+00  0.197E+00
  8.519  0.201E+00  0.201E+00
  8.529  0.205E+00  0.205E+00
  8.539  0.209E+00  0.209E+00
  8.549  0.214E+00  0.214E+00
  8.559  0.219E+00  0.219E+00
  8.569  0.225E+00  0.225E+00
  8.579  0.230E+00  0.230E+00
  8.589  0.236E+00  0.236E+00
  8.599  0.243E+00  0.243E+00
  8.609  0.249E+00  0.249E+00
  8.619  0.255E+00  0.255E+00
  8.629  0.262E+00  0.262E+00
  8.639  0.268E+00  0.268E+00
  8.649  0.275E+00  0.275E+00
  8.659  0.281E+00  0.281E+00
  8.669  0.287E+00  0.287E+00
  8.679  0.292E+00  0.292E+00
  8.689  0.297E+00  0.297E+00
  8.699  0.302E+00  0.302E+00
  8.709  0.306E+00  0.306E+00
  8.719  0.310E+00  0.310E+00
  8.729  0.314E+00  0.314E+00
  8.739  0.317E+00  0.317E+00
  8.749  0.320E+00  0.320E+00
  8.759  0.323E+00  0.323E+00
  8.769  0.326E+00  0.326E+00
  8.779  0.329E+00  0.329E+00
  8.789  0.333E+00  0.333E+00
  8.799  0.337E+00  0.337E+00
  8.809  0.342E+00  0.342E+00
  8.819  0.348E+00  0.348E+00
  8.829  0.355E+00  0.355E+00
  8.839  0.362E+00  0.362E+00
  8.849  0.371E+00  0.371E+00
  8.859  0.381E+00  0.381E+00
  8.869  0.392E+00  0.392E+00
  8.879  0.404E+00  0.404E+00
  8.889  0.416E+00  0.416E+00
  8.899  0.430E+00  0.430E+00
  8.909  0.443E+00  0.443E+00
  8.919  0.457E+00  0.457E+00
  8.929  0.471E+00  0.471E+00
  8.939  0.485E+00  0.485E+00
  8.949  0.498E+00  0.498E+00
  8.959  0.511E+00  0.511E+00
  8.969  0.522E+00  0.522E+00
  8.979  0.532E+00  0.532E+00
  8.989  0.541E+00  0.541E+00
  8.999  0.548E+00  0.548E+00
  9.009  0.554E+00  0.554E+00
  9.019  0.558E+00  0.558E+00
  9.029  0.560E+00  0.560E+00
  9.039  0.560E+00  0.560E+00
  9.049  0.559E+00  0.559E+00
  9.059  0.556E+00  0.556E+00
  9.069  0.552E+00  0.552E+00
  9.079  0.547E+00  0.547E+00
  9.089  0.541E+00  0.541E+00
  9.099  0.534E+00  0.534E+00
  9.109  0.526E+00  0.526E+00
  9.119  0.519E+00  0.519E+00
  9.129  0.511E+00  0.511E+00
  9.139  0.503E+00  0.503E+00
  9.149  0.496E+00  0.496E+00
  9.159  0.489E+00  0.489E+00
  9.169  0.482E+00  0.482E+00
  9.179  0.476E+00  0.476E+00
  9.189  0.471E+00  0.471E+00
  9.199  0.467E+00  0.467E+00
  9.209  0.462E+00  0.462E+00
  9.219  0.459E+00  0.459E+00
  9.229  0.455E+00  0.455E+00
  9.239  0.452E+00  0.452E+00
  9.249  0.448E+00  0.448E+00
  9.259  0.445E+00  0.445E+00
  9.269  0.441E+00  0.441E+00
  9.279  0.436E+00  0.436E+00
  9.289  0.431E+00  0.431E+00
  9.299  0.426E+00  0.426E+00
  9.309  0.420E+00  0.420E+00
  9.319  0.413E+00  0.413E+00
  9.329  0.406E+00  0.406E+00
  9.339  0.398E+00  0.398E+00
  9.349  0.389E+00  0.389E+00
  9.359  0.381E+00  0.381E+00
  9.369  0.372E+00  0.372E+00
  9.379  0.363E+00  0.363E+00
  9.389  0.354E+00  0.354E+00
  9.399  0.346E+00  0.346E+00
  9.409  0.338E+00  0.338E+00
  9.419  0.331E+00  0.331E+00
  9.429  0.325E+00  0.325E+00
  9.439  0.319E+00  0.319E+00
  9.449  0.314E+00  0.314E+00
  9.459  0.309E+00  0.309E+00
  9.469  0.305E+00  0.305E+00
  9.479  0.302E+00  0.302E+00
  9.489  0.300E+00  0.300E+00
  9.499  0.298E+00  0.298E+00
  9.509  0.296E+00  0.296E+00
  9.519  0.294E+00  0.294E+00
  9.529  0.293E+00  0.293E+00
  9.539  0.291E+00  0.291E+00
  9.549  0.289E+00  0.289E+00
  9.559  0.287E+00  0.287E+00
  9.569  0.285E+00  0.285E+00
  9.579  0.282E+00  0.282E+00
  9.589  0.278E+00  0.278E+00
  9.599  0.275E+00  0.275E+00
  9.609  0.270E+00  0.270E+00
  9.619  0.266E+00  0.266E+00
  9.629  0.261E+00  0.261E+00
  9.639  0.255E+00  0.255E+00
  9.649  0.250E+00  0.250E+00
  9.659  0.245E+00  0.245E+00
  9.669  0.239E+00  0.239E+00
  9.679  0.233E+00  0.233E+00
  9.689  0.228E+00  0.228E+00
  9.699  0.223E+00  0.223E+00
  9.709  0.218E+00  0.218E+00
  9.719  0.213E+00  0.213E+00
  9.729  0.208E+00  0.208E+00
  9.739  0.204E+00  0.204E+00
  9.749  0.200E+00  0.200E+00
  9.759  0.196E+00  0.196E+00
  9.769  0.192E+00  0.192E+00
  9.779  0.189E+00  0.189E+00
  9.789  0.186E+00  0.186E+00
  9.799  0.183E+00  0.183E+00
  9.809  0.180E+00  0.180E+00
  9.819  0.178E+00  0.178E+00
  9.829  0.176E+00  0.176E+00
  9.839  0.174E+00  0.174E+00
  9.849  0.173E+00  0.173E+00
  9.859  0.172E+00  0.172E+00
  9.869  0.171E+00  0.171E+00
  9.879  0.170E+00  0.170E+00
  9.889  0.170E+00  0.170E+00
  9.899  0.171E+00  0.171E+00
  9.909  0.171E+00  0.171E+00
  9.919  0.172E+00  0.172E+00
  9.929  0.173E+00  0.173E+00
  9.939  0.175E+00  0.175E+00
  9.949  0.177E+00  0.177E+00
  9.959  0.178E+00  0.178E+00
  9.969  0.180E+00  0.180E+00
  9.979  0.182E+00  0.182E+00
  9.989  0.184E+00  0.184E+00
  9.999  0.186E+00  0.186E+00
 10.009  0.187E+00  0.187E+00
 10.019  0.189E+00  0.189E+00
 10.029  0.189E+00  0.189E+00
 10.039  0.190E+00  0.190E+00
 10.049  0.190E+00  0.190E+00
 10.059  0.189E+00  0.189E+00
 10.069  0.187E+00  0.187E+00
 10.079  0.185E+00  0.185E+00
 10.089  0.183E+00  0.183E+00
 10.099  0.179E+00  0.179E+00
 10.109  0.175E+00  0.175E+00
 10.119  0.170E+00  0.170E+00
 10.129  0.165E+00  0.165E+00
 10.139  0.159E+00  0.159E+00
 10.149  0.153E+00  0.153E+00
 10.159  0.146E+00  0.146E+00
 10.169  0.139E+00  0.139E+00
 10.179  0.132E+00  0.132E+00
 10.189  0.125E+00  0.125E+00
 10.199  0.118E+00  0.118E+00
 10.209  0.111E+00  0.111E+00
 10.219  0.104E+00  0.104E+00
 10.229  0.985E-01  0.985E-01
 10.239  0.932E-01  0.932E-01
 10.249  0.885E-01  0.885E-01
 10.259  0.847E-01  0.847E-01
 10.269  0.819E-01  0.819E-01
 10.279  0.800E-01  0.800E-01
 10.289  0.792E-01  0.792E-01
 10.299  0.796E-01  0.796E-01
 10.309  0.810E-01  0.810E-01
 10.319  0.835E-01  0.835E-01
 10.329  0.871E-01  0.871E-01
 10.339  0.917E-01  0.917E-01
 10.349  0.972E-01  0.972E-01
 10.359  0.103E+00  0.103E+00
 10.369  0.110E+00  0.110E+00
 10.379  0.117E+00  0.117E+00
 10.389  0.125E+00  0.125E+00
 10.399  0.132E+00  0.132E+00
 10.409  0.140E+00  0.140E+00
 10.419  0.147E+00  0.147E+00
 10.429  0.153E+00  0.153E+00
 10.439  0.158E+00  0.158E+00
 10.449  0.163E+00  0.163E+00
 10.459  0.166E+00  0.166E+00
 10.469  0.169E+00  0.169E+00
 10.479  0.170E+00  0.170E+00
 10.489  0.169E+00  0.169E+00
 10.499  0.168E+00  0.168E+00
 10.509  0.166E+00  0.166E+00
 10.519  0.162E+00  0.162E+00
 10.529  0.158E+00  0.158E+00
 10.539  0.153E+00  0.153E+00
 10.549  0.147E+00  0.147E+00
 10.559  0.141E+00  0.141E+00
 10.569  0.135E+00  0.135E+00
 10.579  0.129E+00  0.129E+00
 10.589  0.123E+00  0.123E+00
 10.599  0.118E+00  0.118E+00
 10.609  0.113E+00  0.113E+00
 10.619  0.109E+00  0.109E+00
 10.629  0.105E+00  0.105E+00
 10.639  0.102E+00  0.102E+00
 10.649  0.100E+00  0.100E+00
 10.659  0.986E-01  0.986E-01
 10.669  0.979E-01  0.979E-01
 10.679  0.978E-01  0.978E-01
 10.689  0.983E-01  0.983E-01
 10.699  0.994E-01  0.994E-01
 10.709  0.101E+00  0.101E+00
 10.719  0.103E+00  0.103E+00
 10.729  0.105E+00  0.105E+00
 10.739  0.108E+00  0.108E+00
 10.749  0.111E+00  0.111E+00
 10.759  0.114E+00  0.114E+00
 10.769  0.117E+00  0.117E+00
 10.779  0.120E+00  0.120E+00
 10.789  0.123E+00  0.123E+00
 10.799  0.126E+00  0.126E+00
 10.809  0.128E+00  0.128E+00
 10.819  0.130E+00  0.130E+00
 10.829  0.132E+00  0.132E+00
 10.839  0.134E+00  0.134E+00
 10.849  0.135E+00  0.135E+00
 10.859  0.135E+00  0.135E+00
 10.869  0.135E+00  0.135E+00
 10.879  0.135E+00  0.135E+00
 10.889  0.134E+00  0.134E+00
 10.899  0.132E+00  0.132E+00
 10.909  0.130E+00  0.130E+00
 10.919  0.128E+00  0.128E+00
 10.929  0.125E+00  0.125E+00
 10.939  0.122E+00  0.122E+00
 10.949  0.119E+00  0.119E+00
 10.959  0.115E+00  0.115E+00
 10.969  0.111E+00  0.111E+00
 10.979  0.108E+00  0.108E+00
 10.989  0.104E+00  0.104E+00
 10.999  0.101E+00  0.101E+00
 11.009  0.972E-01  0.972E-01
 11.019  0.940E-01  0.940E-01
 11.029  0.911E-01  0.911E-01
 11.039  0.883E-01  0.883E-01
 11.049  0.859E-01  0.859E-01
 11.059  0.838E-01  0.838E-01
 11.069  0.819E-01  0.819E-01
 11.079  0.803E-01  0.803E-01
 11.089  0.790E-01  0.790E-01
 11.099  0.779E-01  0.779E-01
 11.109  0.770E-01  0.770E-01
 11.119  0.763E-01  0.763E-01
 11.129  0.757E-01  0.757E-01
 11.139  0.751E-01  0.751E-01
 11.149  0.747E-01  0.747E-01
 11.159  0.743E-01  0.743E-01
 11.169  0.739E-01  0.739E-01
 11.179  0.735E-01  0.735E-01
 11.189  0.731E-01  0.731E-01
 11.199  0.727E-01  0.727E-01
 11.209  0.722E-01  0.722E-01
 11.219  0.717E-01  0.717E-01
 11.229  0.712E-01  0.712E-01
 11.239  0.706E-01  0.706E-01
 11.249  0.700E-01  0.700E-01
 11.259  0.694E-01  0.694E-01
 11.269  0.688E-01  0.688E-01
 11.279  0.682E-01  0.682E-01
 11.289  0.676E-01  0.676E-01
 11.299  0.669E-01  0.669E-01
 11.309  0.663E-01  0.663E-01
 11.319  0.656E-01  0.656E-01
 11.329  0.649E-01  0.649E-01
 11.339  0.642E-01  0.642E-01
 11.349  0.634E-01  0.634E-01
 11.359  0.626E-01  0.626E-01
 11.369  0.617E-01  0.617E-01
 11.379  0.607E-01  0.607E-01
 11.389  0.596E-01  0.596E-01
 11.399  0.585E-01  0.585E-01
 11.409  0.572E-01  0.572E-01
 11.419  0.560E-01  0.560E-01
 11.429  0.546E-01  0.546E-01
 11.439  0.532E-01  0.532E-01
 11.449  0.518E-01  0.518E-01
 11.459  0.504E-01  0.504E-01
 11.469  0.490E-01  0.490E-01
 11.479  0.477E-01  0.477E-01
 11.489  0.465E-01  0.465E-01
 11.499  0.454E-01  0.454E-01
 11.509  0.445E-01  0.445E-01
 11.519  0.437E-01  0.437E-01
 11.529  0.431E-01  0.431E-01
 11.539  0.427E-01  0.427E-01
 11.549  0.426E-01  0.426E-01
 11.559  0.426E-01  0.426E-01
 11.569  0.429E-01  0.429E-01
 11.579  0.433E-01  0.433E-01
 11.589  0.440E-01  0.440E-01
 11.599  0.449E-01  0.449E-01
 11.609  0.459E-01  0.459E-01
 11.619  0.471E-01  0.471E-01
 11.629  0.484E-01  0.484E-01
 11.639  0.497E-01  0.497E-01
 11.649  0.511E-01  0.511E-01
 11.659  0.525E-01  0.525E-01
 11.669  0.538E-01  0.538E-01
 11.679  0.551E-01  0.551E-01
 11.689  0.562E-01  0.562E-01
 11.699  0.572E-01  0.572E-01
 11.709  0.581E-01  0.581E-01
 11.719  0.587E-01  0.587E-01
 11.729  0.592E-01  0.592E-01
 11.739  0.595E-01  0.595E-01
 11.749  0.596E-01  0.596E-01
 11.759  0.595E-01  0.595E-01
 11.769  0.593E-01  0.593E-01
 11.779  0.590E-01  0.590E-01
 11.789  0.585E-01  0.585E-01
 11.799  0.580E-01  0.580E-01
 11.809  0.574E-01  0.574E-01
 11.819  0.569E-01  0.569E-01
 11.829  0.564E-01  0.564E-01
 11.839  0.559E-01  0.559E-01
 11.849  0.556E-01  0.556E-01
 11.859  0.553E-01  0.553E-01
 11.869  0.552E-01  0.552E-01
 11.879  0.551E-01  0.551E-01
 11.889  0.553E-01  0.553E-01
 11.899  0.555E-01  0.555E-01
 11.909  0.559E-01  0.559E-01
 11.919  0.563E-01  0.563E-01
 11.929  0.569E-01  0.569E-01
 11.939  0.574E-01  0.574E-01
 11.949  0.580E-01  0.580E-01
 11.959  0.586E-01  0.586E-01
 11.969  0.591E-01  0.591E-01
 11.979  0.596E-01  0.596E-01
 11.989  0.600E-01  0.600E-01
 11.999  0.603E-01  0.603E-01
 12.009  0.604E-01  0.604E-01
 12.019  0.605E-01  0.605E-01
 12.029  0.603E-01  0.603E-01
 12.039  0.601E-01  0.601E-01
 12.049  0.597E-01  0.597E-01
 12.059  0.592E-01  0.592E-01
 12.069  0.586E-01  0.586E-01
 12.079  0.580E-01  0.580E-01
 12.089  0.572E-01  0.572E-01
 12.099  0.565E-01  0.565E-01
 12.109  0.556E-01  0.556E-01
 12.119  0.548E-01  0.548E-01
 12.129  0.540E-01  0.540E-01
 12.139  0.532E-01  0.532E-01
 12.149  0.524E-01  0.524E-01
 12.159  0.515E-01  0.515E-01
 12.169  0.507E-01  0.507E-01
 12.179  0.499E-01  0.499E-01
 12.189  0.490E-01  0.490E-01
 12.199  0.481E-01  0.481E-01
 12.209  0.472E-01  0.472E-01
 12.219  0.463E-01  0.463E-01
 12.229  0.453E-01  0.453E-01
 12.239  0.443E-01  0.443E-01
 12.249  0.432E-01  0.432E-01
 12.259  0.421E-01  0.421E-01
 12.269  0.410E-01  0.410E-01
 12.279  0.398E-01  0.398E-01
 12.289  0.387E-01  0.387E-01
 12.299  0.376E-01  0.376E-01
 12.309  0.365E-01  0.365E-01
 12.319  0.354E-01  0.354E-01
 12.329  0.345E-01  0.345E-01
 12.339  0.335E-01  0.335E-01
 12.349  0.327E-01  0.327E-01
 12.359  0.319E-01  0.319E-01
 12.369  0.313E-01  0.313E-01
 12.379  0.307E-01  0.307E-01
 12.389  0.301E-01  0.301E-01
 12.399  0.297E-01  0.297E-01
 12.409  0.293E-01  0.293E-01
 12.419  0.289E-01  0.289E-01
 12.429  0.286E-01  0.286E-01
 12.439  0.282E-01  0.282E-01
 12.449  0.279E-01  0.279E-01
 12.459  0.276E-01  0.276E-01
 12.469  0.273E-01  0.273E-01
 12.479  0.270E-01  0.270E-01
 12.489  0.266E-01  0.266E-01
 12.499  0.263E-01  0.263E-01
 12.509  0.260E-01  0.260E-01
 12.519  0.258E-01  0.258E-01
 12.529  0.256E-01  0.256E-01
 12.539  0.254E-01  0.254E-01
 12.549  0.254E-01  0.254E-01
 12.559  0.254E-01  0.254E-01
 12.569  0.256E-01  0.256E-01
 12.579  0.258E-01  0.258E-01
 12.589  0.262E-01  0.262E-01
 12.599  0.267E-01  0.267E-01
 12.609  0.273E-01  0.273E-01
 12.619  0.280E-01  0.280E-01
 12.629  0.288E-01  0.288E-01
 12.639  0.296E-01  0.296E-01
 12.649  0.305E-01  0.305E-01
 12.659  0.314E-01  0.314E-01
 12.669  0.322E-01  0.322E-01
 12.679  0.330E-01  0.330E-01
 12.689  0.337E-01  0.337E-01
 12.699  0.343E-01  0.343E-01
 12.709  0.348E-01  0.348E-01
 12.719  0.352E-01  0.352E-01
 12.729  0.354E-01  0.354E-01
 12.739  0.355E-01  0.355E-01
 12.749  0.355E-01  0.355E-01
 12.759  0.353E-01  0.353E-01
 12.769  0.350E-01  0.350E-01
 12.779  0.346E-01  0.346E-01
 12.789  0.341E-01  0.341E-01
 12.799  0.335E-01  0.335E-01
 12.809  0.329E-01  0.329E-01
 12.819  0.322E-01  0.322E-01
 12.829  0.316E-01  0.316E-01
 12.839  0.309E-01  0.309E-01
 12.849  0.304E-01  0.304E-01
 12.859  0.298E-01  0.298E-01
 12.869  0.294E-01  0.294E-01
 12.879  0.290E-01  0.290E-01
 12.889  0.287E-01  0.287E-01
 12.899  0.286E-01  0.286E-01
 12.909  0.286E-01  0.286E-01
 12.919  0.287E-01  0.287E-01
 12.929  0.289E-01  0.289E-01
 12.939  0.293E-01  0.293E-01
 12.949  0.298E-01  0.298E-01
 12.959  0.305E-01  0.305E-01
 12.969  0.312E-01  0.312E-01
 12.979  0.322E-01  0.322E-01
 12.989  0.332E-01  0.332E-01
 12.999  0.344E-01  0.344E-01
 13.009  0.356E-01  0.356E-01
 13.019  0.370E-01  0.370E-01
 13.029  0.385E-01  0.385E-01
 13.039  0.400E-01  0.400E-01
 13.049  0.416E-01  0.416E-01
 13.059  0.433E-01  0.433E-01
 13.069  0.449E-01  0.449E-01
 13.079  0.465E-01  0.465E-01
 13.089  0.481E-01  0.481E-01
 13.099  0.497E-01  0.497E-01
 13.109  0.511E-01  0.511E-01
 13.119  0.525E-01  0.525E-01
 13.129  0.537E-01  0.537E-01
 13.139  0.548E-01  0.548E-01
 13.149  0.558E-01  0.558E-01
 13.159  0.566E-01  0.566E-01
 13.169  0.572E-01  0.572E-01
 13.179  0.577E-01  0.577E-01
 13.189  0.581E-01  0.581E-01
 13.199  0.583E-01  0.583E-01
 13.209  0.584E-01  0.584E-01
 13.219  0.585E-01  0.585E-01
 13.229  0.585E-01  0.585E-01
 13.239  0.584E-01  0.584E-01
 13.249  0.583E-01  0.583E-01
 13.259  0.581E-01  0.581E-01
 13.269  0.580E-01  0.580E-01
 13.279  0.578E-01  0.578E-01
 13.289  0.577E-01  0.577E-01
 13.299  0.575E-01  0.575E-01
 13.309  0.573E-01  0.573E-01
 13.319  0.570E-01  0.570E-01
 13.329  0.567E-01  0.567E-01
 13.339  0.563E-01  0.563E-01
 13.349  0.558E-01  0.558E-01
 13.359  0.552E-01  0.552E-01
 13.369  0.545E-01  0.545E-01
 13.379  0.536E-01  0.536E-01
 13.389  0.525E-01  0.525E-01
 13.399  0.512E-01  0.512E-01
 13.409  0.498E-01  0.498E-01
 13.419  0.482E-01  0.482E-01
 13.429  0.465E-01  0.465E-01
 13.439  0.446E-01  0.446E-01
 13.449  0.426E-01  0.426E-01
 13.459  0.406E-01  0.406E-01
 13.469  0.385E-01  0.385E-01
 13.479  0.363E-01  0.363E-01
 13.489  0.342E-01  0.342E-01
 13.499  0.321E-01  0.321E-01
 13.509  0.301E-01  0.301E-01
 13.519  0.282E-01  0.282E-01
 13.529  0.264E-01  0.264E-01
 13.539  0.248E-01  0.248E-01
 13.549  0.234E-01  0.234E-01
 13.559  0.221E-01  0.221E-01
 13.569  0.211E-01  0.211E-01
 13.579  0.202E-01  0.202E-01
 13.589  0.194E-01  0.194E-01
 13.599  0.189E-01  0.189E-01
 13.609  0.185E-01  0.185E-01
 13.619  0.182E-01  0.182E-01
 13.629  0.181E-01  0.181E-01
 13.639  0.180E-01  0.180E-01
 13.649  0.181E-01  0.181E-01
 13.659  0.182E-01  0.182E-01
 13.669  0.184E-01  0.184E-01
 13.679  0.186E-01  0.186E-01
 13.689  0.188E-01  0.188E-01
 13.699  0.190E-01  0.190E-01
 13.709  0.192E-01  0.192E-01
 13.719  0.194E-01  0.194E-01
 13.729  0.195E-01  0.195E-01
 13.739  0.196E-01  0.196E-01
 13.749  0.197E-01  0.197E-01
 13.759  0.197E-01  0.197E-01
 13.769  0.196E-01  0.196E-01
 13.779  0.196E-01  0.196E-01
 13.789  0.194E-01  0.194E-01
 13.799  0.192E-01  0.192E-01
 13.809  0.189E-01  0.189E-01
 13.819  0.187E-01  0.187E-01
 13.829  0.183E-01  0.183E-01
 13.839  0.179E-01  0.179E-01
 13.849  0.175E-01  0.175E-01
 13.859  0.171E-01  0.171E-01
 13.869  0.167E-01  0.167E-01
 13.879  0.162E-01  0.162E-01
 13.889  0.158E-01  0.158E-01
 13.899  0.153E-01  0.153E-01
 13.909  0.149E-01  0.149E-01
 13.919  0.145E-01  0.145E-01
 13.929  0.141E-01  0.141E-01
 13.939  0.138E-01  0.138E-01
 13.949  0.135E-01  0.135E-01
 13.959  0.132E-01  0.132E-01
 13.969  0.129E-01  0.129E-01
 13.979  0.127E-01  0.127E-01
 13.989  0.125E-01  0.125E-01
 13.999  0.124E-01  0.124E-01
 14.009  0.123E-01  0.123E-01
 14.019  0.122E-01  0.122E-01
 14.029  0.122E-01  0.122E-01
 14.039  0.121E-01  0.121E-01
 14.049  0.121E-01  0.121E-01
 14.059  0.122E-01  0.122E-01
 14.069  0.122E-01  0.122E-01
 14.079  0.123E-01  0.123E-01
 14.089  0.124E-01  0.124E-01
 14.099  0.125E-01  0.125E-01
 14.109  0.126E-01  0.126E-01
 14.119  0.128E-01  0.128E-01
 14.129  0.129E-01  0.129E-01
 14.139  0.130E-01  0.130E-01
 14.149  0.131E-01  0.131E-01
 14.159  0.132E-01  0.132E-01
 14.169  0.133E-01  0.133E-01
 14.179  0.134E-01  0.134E-01
 14.189  0.134E-01  0.134E-01
 14.199  0.135E-01  0.135E-01
 14.209  0.135E-01  0.135E-01
 14.219  0.135E-01  0.135E-01
 14.229  0.135E-01  0.135E-01
 14.239  0.134E-01  0.134E-01
 14.249  0.134E-01  0.134E-01
 14.259  0.133E-01  0.133E-01
 14.269  0.132E-01  0.132E-01
 14.279  0.131E-01  0.131E-01
 14.289  0.130E-01  0.130E-01
 14.299  0.129E-01  0.129E-01
 14.309  0.128E-01  0.128E-01
 14.319  0.126E-01  0.126E-01
 14.329  0.124E-01  0.124E-01
 14.339  0.122E-01  0.122E-01
 14.349  0.120E-01  0.120E-01
 14.359  0.118E-01  0.118E-01
 14.369  0.116E-01  0.116E-01
 14.379  0.114E-01  0.114E-01
 14.389  0.111E-01  0.111E-01
 14.399  0.108E-01  0.108E-01
 14.409  0.106E-01  0.106E-01
 14.419  0.103E-01  0.103E-01
 14.429  0.101E-01  0.101E-01
 14.439  0.980E-02  0.980E-02
 14.449  0.957E-02  0.957E-02
 14.459  0.936E-02  0.936E-02
 14.469  0.918E-02  0.918E-02
 14.479  0.903E-02  0.903E-02
 14.489  0.892E-02  0.892E-02
 14.499  0.884E-02  0.884E-02
 14.509  0.879E-02  0.879E-02
 14.519  0.878E-02  0.878E-02
 14.529  0.881E-02  0.881E-02
 14.539  0.886E-02  0.886E-02
 14.549  0.893E-02  0.893E-02
 14.559  0.901E-02  0.901E-02
 14.569  0.911E-02  0.911E-02
 14.579  0.920E-02  0.920E-02
 14.589  0.929E-02  0.929E-02
 14.599  0.936E-02  0.936E-02
 14.609  0.941E-02  0.941E-02
 14.619  0.944E-02  0.944E-02
 14.629  0.943E-02  0.943E-02
 14.639  0.939E-02  0.939E-02
 14.649  0.931E-02  0.931E-02
 14.659  0.919E-02  0.919E-02
 14.669  0.903E-02  0.903E-02
 14.679  0.883E-02  0.883E-02
 14.689  0.860E-02  0.860E-02
 14.699  0.834E-02  0.834E-02
 14.709  0.805E-02  0.805E-02
 14.719  0.774E-02  0.774E-02
 14.729  0.742E-02  0.742E-02
 14.739  0.709E-02  0.709E-02
 14.749  0.677E-02  0.677E-02
 14.759  0.644E-02  0.644E-02
 14.769  0.613E-02  0.613E-02
 14.779  0.583E-02  0.583E-02
 14.789  0.555E-02  0.555E-02
 14.799  0.529E-02  0.529E-02
 14.809  0.505E-02  0.505E-02
 14.819  0.484E-02  0.484E-02
 14.829  0.466E-02  0.466E-02
 14.839  0.450E-02  0.450E-02
 14.849  0.436E-02  0.436E-02
 14.859  0.425E-02  0.425E-02
 14.869  0.416E-02  0.416E-02
 14.879  0.410E-02  0.410E-02
 14.889  0.405E-02  0.405E-02
 14.899  0.402E-02  0.402E-02
 14.909  0.401E-02  0.401E-02
 14.919  0.401E-02  0.401E-02
 14.929  0.403E-02  0.403E-02
 14.939  0.405E-02  0.405E-02
 14.949  0.409E-02  0.409E-02
 14.959  0.413E-02  0.413E-02
 14.969  0.417E-02  0.417E-02
 14.979  0.421E-02  0.421E-02
 14.989  0.425E-02  0.425E-02
 14.999  0.428E-02  0.428E-02
 15.009  0.430E-02  0.430E-02
 15.019  0.431E-02  0.431E-02
 15.029  0.430E-02  0.430E-02
 15.039  0.428E-02  0.428E-02
 15.049  0.424E-02  0.424E-02
 15.059  0.419E-02  0.419E-02
 15.069  0.411E-02  0.411E-02
 15.079  0.401E-02  0.401E-02
 15.089  0.389E-02  0.389E-02
 15.099  0.376E-02  0.376E-02
 15.109  0.361E-02  0.361E-02
 15.119  0.345E-02  0.345E-02
 15.129  0.328E-02  0.328E-02
 15.139  0.310E-02  0.310E-02
 15.149  0.292E-02  0.292E-02
 15.159  0.273E-02  0.273E-02
 15.169  0.255E-02  0.255E-02
 15.179  0.238E-02  0.238E-02
 15.189  0.221E-02  0.221E-02
 15.199  0.205E-02  0.205E-02
 15.209  0.190E-02  0.190E-02
 15.219  0.176E-02  0.176E-02
 15.229  0.163E-02  0.163E-02
 15.239  0.151E-02  0.151E-02
 15.249  0.140E-02  0.140E-02
 15.259  0.130E-02  0.130E-02
 15.269  0.121E-02  0.121E-02
 15.279  0.112E-02  0.112E-02
 15.289  0.105E-02  0.105E-02
 15.299  0.974E-03  0.974E-03
 15.309  0.907E-03  0.907E-03
 15.319  0.843E-03  0.843E-03
 15.329  0.782E-03  0.782E-03
 15.339  0.724E-03  0.724E-03
 15.349  0.667E-03  0.667E-03
 15.359  0.612E-03  0.612E-03
 15.369  0.558E-03  0.558E-03
 15.379  0.506E-03  0.506E-03
 15.389  0.456E-03  0.456E-03
 15.399  0.408E-03  0.408E-03
 15.409  0.362E-03  0.362E-03
 15.419  0.319E-03  0.319E-03
 15.429  0.279E-03  0.279E-03
 15.439  0.241E-03  0.241E-03
 15.449  0.207E-03  0.207E-03
 15.459  0.176E-03  0.176E-03
 15.469  0.148E-03  0.148E-03
 15.479  0.124E-03  0.124E-03
 15.489  0.102E-03  0.102E-03
 15.499  0.839E-04  0.839E-04
 15.509  0.680E-04  0.680E-04
 15.519  0.546E-04  0.546E-04
 15.529  0.434E-04  0.434E-04
 15.539  0.341E-04  0.341E-04
 15.549  0.266E-04  0.266E-04
 15.559  0.205E-04  0.205E-04
 15.569  0.157E-04  0.157E-04
 15.579  0.118E-04  0.118E-04
 15.589  0.885E-05  0.885E-05
 15.599  0.655E-05  0.655E-05
 15.609  0.480E-05  0.480E-05
 15.619  0.348E-05  0.348E-05
 15.629  0.250E-05  0.250E-05
 15.639  0.177E-05  0.177E-05
 15.649  0.125E-05  0.125E-05
 15.659  0.868E-06  0.868E-06
 15.669  0.597E-06  0.597E-06
 15.679  0.407E-06  0.407E-06
 15.689  0.274E-06  0.274E-06
 15.699  0.183E-06  0.183E-06
 15.709  0.121E-06  0.121E-06
 15.719  0.789E-07  0.789E-07
 15.729  0.510E-07  0.510E-07
 15.739  0.326E-07  0.326E-07
 15.749  0.207E-07  0.207E-07
 15.759  0.129E-07  0.129E-07
 15.769  0.801E-08  0.801E-08
 15.779  0.491E-08  0.491E-08
 15.789  0.298E-08  0.298E-08
 15.799  0.179E-08  0.179E-08
 15.809  0.106E-08  0.106E-08
 15.819  0.625E-09  0.625E-09
 15.829  0.363E-09  0.363E-09
 15.839  0.209E-09  0.209E-09
 15.849  0.119E-09  0.119E-09
 15.859  0.670E-10  0.670E-10
 15.869  0.373E-10  0.373E-10
 15.879  0.206E-10  0.206E-10
 15.889  0.112E-10  0.112E-10
 15.899  0.606E-11  0.606E-11
 15.909  0.323E-11  0.323E-11
 15.919  0.171E-11  0.171E-11
 15.929  0.893E-12  0.893E-12
 15.939  0.462E-12  0.462E-12
 15.949  0.236E-12  0.236E-12
 15.959  0.120E-12  0.120E-12
 15.969  0.599E-13  0.599E-13
 15.979  0.287E-13  0.287E-13
 15.989  0.141E-13  0.141E-13
 15.999  0.684E-14  0.684E-14
 16.009  0.329E-14  0.329E-14
 16.019  0.156E-14  0.156E-14
 16.029  0.250E-18  0.250E-18
 16.039  0.164E-18  0.164E-18
 16.049  0.106E-18  0.106E-18
 16.059  0.683E-19  0.683E-19
